 => TITLE: 
 => Data file name: C:\users\m93a\Mé dokumenty\praktikum2020\A19\data-default\dataset021_Cu.dat
 => Instrm        :    2
 => Lambda(1&2)   :   1.54060  1.54439
 => Numb.of.points:      2676
 => Numb.of.peaks :         5
    2Theta     Yobs     Ycalc  Yobs-Ycal    Backg    Bragg     Posr  Intensity   FWHM    Eta
   62.9200      2.72      1.66    -34.42      1.66   72.2509    -17.20      69.44  0.1924  0.7685
   62.9400      1.76      1.66    -35.38      1.66   76.0216    -17.20      32.62  0.1924  0.7685
   62.9600      2.08      1.66    -35.06      1.66   90.7397    -17.20      26.06  0.1924  0.7685
   62.9800      2.28      1.66    -34.86      1.66  101.6353    -17.20      39.08  0.1924  0.7685
   63.0000      2.12      1.66    -35.02      1.66  105.3887    -17.20      42.92  0.1924  0.7685
   63.0200      2.08      1.66    -35.06      1.66
   63.0400      2.56      1.66    -34.58      1.66
   63.0600      1.92      1.66    -35.22      1.66
   63.0800      2.84      1.66    -34.30      1.66
   63.1000      2.32      1.66    -34.82      1.66
   63.1200      2.32      1.66    -34.82      1.66
   63.1400      2.92      1.66    -34.22      1.66
   63.1600      2.00      1.66    -35.14      1.66
   63.1800      2.08      1.66    -35.06      1.66
   63.2000      2.28      1.66    -34.86      1.66
   63.2200      2.68      1.66    -34.46      1.66
   63.2400      2.84      1.66    -34.30      1.66
   63.2600      2.56      1.66    -34.58      1.66
   63.2800      2.48      1.66    -34.66      1.66
   63.3000      2.08      1.66    -35.06      1.66
   63.3200      1.96      1.66    -35.18      1.66
   63.3400      1.88      1.66    -35.26      1.66
   63.3600      2.52      1.66    -34.62      1.66
   63.3800      2.40      1.66    -34.74      1.66
   63.4000      1.80      1.66    -35.34      1.66
   63.4200      2.08      1.66    -35.06      1.66
   63.4400      1.64      1.66    -35.50      1.66
   63.4600      2.00      1.66    -35.14      1.66
   63.4800      2.04      1.66    -35.10      1.66
   63.5000      2.04      1.66    -35.10      1.66
   63.5200      2.64      1.66    -34.50      1.66
   63.5400      1.76      1.66    -35.38      1.66
   63.5600      2.16      1.66    -34.98      1.66
   63.5800      2.00      1.66    -35.14      1.66
   63.6000      2.44      1.66    -34.70      1.66
   63.6200      2.16      1.67    -34.99      1.67
   63.6400      2.08      1.67    -35.07      1.67
   63.6600      2.20      1.67    -34.95      1.67
   63.6800      2.64      1.67    -34.51      1.67
   63.7000      2.28      1.67    -34.87      1.67
   63.7200      2.36      1.67    -34.79      1.67
   63.7400      2.60      1.67    -34.55      1.67
   63.7600      2.16      1.67    -34.99      1.67
   63.7800      1.92      1.67    -35.23      1.67
   63.8000      2.20      1.67    -34.95      1.67
   63.8200      2.60      1.67    -34.55      1.67
   63.8400      2.04      1.67    -35.11      1.67
   63.8600      2.08      1.67    -35.07      1.67
   63.8800      2.08      1.67    -35.07      1.67
   63.9000      2.00      1.67    -35.15      1.67
   63.9200      2.28      1.67    -34.87      1.67
   63.9400      1.80      1.67    -35.35      1.67
   63.9600      2.32      1.67    -34.83      1.67
   63.9800      2.60      1.67    -34.55      1.67
   64.0000      2.44      1.67    -34.71      1.67
   64.0200      2.40      1.67    -34.75      1.67
   64.0400      2.20      1.67    -34.95      1.67
   64.0600      2.68      1.67    -34.47      1.67
   64.0800      2.28      1.67    -34.87      1.67
   64.1000      2.48      1.67    -34.67      1.67
   64.1200      2.04      1.67    -35.11      1.67
   64.1400      1.92      1.67    -35.23      1.67
   64.1600      2.08      1.67    -35.07      1.67
   64.1800      2.88      1.67    -34.27      1.67
   64.2000      2.32      1.67    -34.83      1.67
   64.2200      2.60      1.67    -34.55      1.67
   64.2400      2.24      1.67    -34.91      1.67
   64.2600      2.32      1.67    -34.83      1.67
   64.2800      2.72      1.67    -34.43      1.67
   64.3000      2.12      1.67    -35.03      1.67
   64.3200      2.48      1.67    -34.67      1.67
   64.3400      2.68      1.67    -34.47      1.67
   64.3600      2.44      1.67    -34.71      1.67
   64.3800      2.52      1.67    -34.63      1.67
   64.4000      1.64      1.67    -35.51      1.67
   64.4200      2.28      1.67    -34.87      1.67
   64.4400      1.68      1.67    -35.47      1.67
   64.4600      2.44      1.67    -34.71      1.67
   64.4800      2.04      1.67    -35.11      1.67
   64.5000      2.48      1.67    -34.67      1.67
   64.5200      1.72      1.67    -35.43      1.67
   64.5400      1.72      1.67    -35.43      1.67
   64.5600      1.72      1.69    -35.45      1.67
   64.5800      2.24      1.69    -34.93      1.67
   64.6000      2.00      1.69    -35.17      1.67
   64.6200      1.64      1.69    -35.53      1.67
   64.6400      2.56      1.69    -34.61      1.67
   64.6600      2.48      1.69    -34.69      1.67
   64.6800      2.20      1.69    -34.97      1.67
   64.7000      2.52      1.69    -34.65      1.67
   64.7200      1.80      1.69    -35.37      1.67
   64.7400      2.12      1.69    -35.05      1.67
   64.7600      2.32      1.70    -34.86      1.67
   64.7800      1.80      1.70    -35.38      1.67
   64.8000      2.12      1.70    -35.06      1.67
   64.8200      2.08      1.70    -35.10      1.67
   64.8400      2.12      1.70    -35.06      1.67
   64.8600      2.24      1.70    -34.94      1.67
   64.8800      1.56      1.70    -35.62      1.67
   64.9000      1.96      1.70    -35.22      1.67
   64.9200      2.00      1.70    -35.18      1.67
   64.9400      1.48      1.70    -35.70      1.67
   64.9600      1.76      1.70    -35.42      1.67
   64.9800      2.28      1.70    -34.90      1.67
   65.0000      2.00      1.70    -35.18      1.67
   65.0200      1.92      1.70    -35.26      1.67
   65.0400      2.36      1.70    -34.82      1.67
   65.0600      2.04      1.70    -35.14      1.67
   65.0800      2.12      1.70    -35.06      1.67
   65.1000      2.04      1.70    -35.14      1.67
   65.1200      1.96      1.70    -35.22      1.67
   65.1400      1.88      1.70    -35.30      1.67
   65.1600      1.68      1.70    -35.50      1.67
   65.1800      2.04      1.70    -35.14      1.67
   65.2000      2.16      1.70    -35.02      1.67
   65.2200      2.68      1.70    -34.50      1.67
   65.2400      2.28      1.70    -34.90      1.67
   65.2600      2.36      1.70    -34.82      1.67
   65.2800      2.44      1.70    -34.74      1.67
   65.3000      2.16      1.70    -35.02      1.67
   65.3200      2.24      1.70    -34.94      1.67
   65.3400      1.96      1.71    -35.23      1.67
   65.3600      2.28      1.71    -34.91      1.67
   65.3800      1.68      1.71    -35.51      1.67
   65.4000      2.12      1.71    -35.07      1.67
   65.4200      2.08      1.71    -35.11      1.67
   65.4400      1.72      1.71    -35.47      1.67
   65.4600      1.88      1.71    -35.31      1.67
   65.4800      2.00      1.71    -35.19      1.67
   65.5000      2.24      1.71    -34.95      1.67
   65.5200      1.72      1.71    -35.47      1.67
   65.5400      2.16      1.71    -35.03      1.67
   65.5600      1.80      1.71    -35.39      1.67
   65.5800      2.24      1.71    -34.95      1.67
   65.6000      1.88      1.71    -35.31      1.67
   65.6200      2.40      1.71    -34.79      1.67
   65.6400      1.68      1.71    -35.51      1.67
   65.6600      1.72      1.71    -35.47      1.67
   65.6800      2.44      1.71    -34.75      1.67
   65.7000      2.12      1.71    -35.07      1.67
   65.7200      2.52      1.71    -34.67      1.67
   65.7400      2.28      1.71    -34.91      1.67
   65.7600      2.24      1.71    -34.95      1.67
   65.7800      1.36      1.71    -35.83      1.67
   65.8000      2.44      1.71    -34.75      1.67
   65.8200      2.08      1.71    -35.11      1.67
   65.8400      1.48      1.71    -35.71      1.67
   65.8600      2.12      1.71    -35.07      1.67
   65.8800      2.08      1.71    -35.11      1.67
   65.9000      1.80      1.71    -35.39      1.67
   65.9200      2.44      1.71    -34.75      1.67
   65.9400      1.80      1.71    -35.39      1.67
   65.9600      1.84      1.71    -35.35      1.67
   65.9800      1.96      1.71    -35.23      1.67
   66.0000      1.96      1.71    -35.23      1.67
   66.0200      2.12      1.72    -35.08      1.67
   66.0400      2.28      1.72    -34.92      1.67
   66.0600      2.36      1.72    -34.84      1.67
   66.0800      1.96      1.72    -35.24      1.67
   66.1000      1.84      1.72    -35.36      1.67
   66.1200      2.08      1.72    -35.12      1.67
   66.1400      2.24      1.72    -34.96      1.67
   66.1600      1.56      1.72    -35.64      1.67
   66.1800      1.80      1.72    -35.40      1.67
   66.2000      1.80      1.72    -35.40      1.67
   66.2200      2.40      1.72    -34.80      1.67
   66.2400      2.52      1.72    -34.68      1.67
   66.2600      1.48      1.72    -35.72      1.68
   66.2800      1.84      1.72    -35.36      1.68
   66.3000      1.80      1.72    -35.40      1.68
   66.3200      2.12      1.72    -35.08      1.68
   66.3400      2.00      1.72    -35.20      1.68
   66.3600      1.40      1.72    -35.80      1.68
   66.3800      1.60      1.72    -35.60      1.68
   66.4000      2.16      1.72    -35.04      1.68
   66.4200      1.88      1.72    -35.32      1.68
   66.4400      1.92      1.72    -35.28      1.68
   66.4600      1.96      1.72    -35.24      1.68
   66.4800      2.12      1.72    -35.08      1.68
   66.5000      2.04      1.72    -35.16      1.68
   66.5200      2.12      1.72    -35.08      1.68
   66.5400      1.88      1.73    -35.33      1.68
   66.5600      1.64      1.73    -35.57      1.68
   66.5800      2.04      1.73    -35.17      1.68
   66.6000      1.20      1.73    -36.01      1.68
   66.6200      2.00      1.73    -35.21      1.68
   66.6400      1.76      1.73    -35.45      1.68
   66.6600      2.20      1.73    -35.01      1.68
   66.6800      1.68      1.73    -35.53      1.68
   66.7000      2.04      1.73    -35.17      1.68
   66.7200      1.92      1.73    -35.29      1.68
   66.7400      2.60      1.73    -34.61      1.68
   66.7600      1.68      1.73    -35.53      1.68
   66.7800      2.16      1.73    -35.05      1.68
   66.8000      1.96      1.73    -35.25      1.68
   66.8200      2.04      1.73    -35.17      1.68
   66.8400      1.68      1.73    -35.53      1.68
   66.8600      1.64      1.73    -35.57      1.68
   66.8800      2.04      1.73    -35.17      1.68
   66.9000      1.64      1.73    -35.57      1.68
   66.9200      2.80      1.73    -34.41      1.68
   66.9400      2.00      1.73    -35.21      1.68
   66.9600      2.00      1.73    -35.21      1.68
   66.9800      2.08      1.74    -35.14      1.68
   67.0000      2.28      1.74    -34.94      1.68
   67.0200      1.92      1.74    -35.30      1.68
   67.0400      2.12      1.74    -35.10      1.68
   67.0600      1.76      1.74    -35.46      1.68
   67.0800      1.96      1.74    -35.26      1.68
   67.1000      2.32      1.74    -34.90      1.68
   67.1200      1.76      1.74    -35.46      1.68
   67.1400      1.92      1.74    -35.30      1.68
   67.1600      1.92      1.74    -35.30      1.68
   67.1800      2.12      1.74    -35.10      1.68
   67.2000      2.08      1.74    -35.14      1.68
   67.2200      1.68      1.74    -35.54      1.68
   67.2400      2.48      1.74    -34.74      1.68
   67.2600      1.80      1.74    -35.42      1.68
   67.2800      2.00      1.74    -35.22      1.68
   67.3000      1.76      1.74    -35.46      1.68
   67.3200      1.80      1.74    -35.42      1.68
   67.3400      2.28      1.75    -34.95      1.68
   67.3600      2.20      1.75    -35.03      1.68
   67.3800      2.32      1.75    -34.91      1.68
   67.4000      1.68      1.75    -35.55      1.68
   67.4200      2.12      1.75    -35.11      1.68
   67.4400      1.92      1.75    -35.31      1.68
   67.4600      1.52      1.75    -35.71      1.68
   67.4800      1.64      1.75    -35.59      1.68
   67.5000      1.88      1.75    -35.35      1.68
   67.5200      1.96      1.75    -35.27      1.68
   67.5400      2.20      1.75    -35.03      1.68
   67.5600      1.52      1.75    -35.71      1.68
   67.5800      1.68      1.75    -35.55      1.68
   67.6000      1.88      1.75    -35.35      1.68
   67.6200      2.12      1.75    -35.11      1.68
   67.6400      1.56      1.75    -35.67      1.68
   67.6600      1.68      1.76    -35.56      1.68
   67.6800      2.00      1.76    -35.24      1.68
   67.7000      1.56      1.76    -35.68      1.68
   67.7200      1.20      1.76    -36.04      1.68
   67.7400      2.76      1.76    -34.48      1.68
   67.7600      1.72      1.76    -35.52      1.68
   67.7800      1.84      1.76    -35.40      1.68
   67.8000      1.76      1.76    -35.48      1.68
   67.8200      1.72      1.76    -35.52      1.68
   67.8400      1.68      1.76    -35.56      1.68
   67.8600      1.92      1.76    -35.32      1.68
   67.8800      1.72      1.76    -35.52      1.68
   67.9000      1.80      1.76    -35.44      1.68
   67.9200      2.00      1.77    -35.25      1.68
   67.9400      2.20      1.77    -35.05      1.68
   67.9600      2.04      1.77    -35.21      1.68
   67.9800      2.08      1.77    -35.17      1.68
   68.0000      1.64      1.77    -35.61      1.68
   68.0200      2.16      1.77    -35.09      1.68
   68.0400      2.32      1.77    -34.93      1.68
   68.0600      2.04      1.77    -35.21      1.68
   68.0800      1.84      1.77    -35.41      1.68
   68.1000      1.96      1.77    -35.29      1.68
   68.1200      1.64      1.77    -35.61      1.68
   68.1400      1.80      1.78    -35.46      1.68
   68.1600      1.56      1.78    -35.70      1.68
   68.1800      2.60      1.78    -34.66      1.68
   68.2000      1.76      1.78    -35.50      1.68
   68.2200      2.28      1.78    -34.98      1.68
   68.2400      2.04      1.78    -35.22      1.68
   68.2600      2.28      1.78    -34.98      1.68
   68.2800      1.96      1.78    -35.30      1.68
   68.3000      1.92      1.78    -35.34      1.68
   68.3200      1.76      1.79    -35.51      1.68
   68.3400      2.20      1.79    -35.07      1.68
   68.3600      2.16      1.80    -35.12      1.68
   68.3800      1.92      1.80    -35.36      1.68
   68.4000      2.00      1.80    -35.28      1.68
   68.4200      1.84      1.80    -35.44      1.68
   68.4400      1.72      1.80    -35.56      1.68
   68.4600      1.92      1.80    -35.36      1.68
   68.4800      2.04      1.80    -35.24      1.68
   68.5000      1.92      1.80    -35.36      1.68
   68.5200      1.72      1.81    -35.57      1.68
   68.5400      1.76      1.81    -35.53      1.68
   68.5600      1.52      1.81    -35.77      1.68
   68.5800      1.68      1.81    -35.61      1.68
   68.6000      1.80      1.82    -35.50      1.68
   68.6200      2.00      1.82    -35.30      1.68
   68.6400      2.12      1.82    -35.18      1.68
   68.6600      1.56      1.82    -35.74      1.68
   68.6800      1.52      1.82    -35.78      1.68
   68.7000      1.84      1.82    -35.46      1.68
   68.7200      2.12      1.82    -35.18      1.68
   68.7400      1.24      1.83    -36.07      1.68
   68.7600      1.96      1.83    -35.35      1.68
   68.7800      1.76      1.83    -35.55      1.68
   68.8000      1.84      1.83    -35.47      1.68
   68.8200      1.28      1.83    -36.03      1.68
   68.8400      2.20      1.83    -35.11      1.68
   68.8600      1.96      1.84    -35.36      1.68
   68.8800      2.32      1.84    -35.00      1.68
   68.9000      1.76      1.84    -35.56      1.69
   68.9200      1.76      1.84    -35.56      1.69
   68.9400      1.76      1.84    -35.56      1.69
   68.9600      1.64      1.85    -35.69      1.69
   68.9800      2.36      1.85    -34.97      1.69
   69.0000      2.16      1.85    -35.17      1.69
   69.0200      1.72      1.85    -35.61      1.69
   69.0400      2.04      1.85    -35.29      1.69
   69.0600      1.76      1.86    -35.58      1.69
   69.0800      1.96      1.86    -35.38      1.69
   69.1000      1.52      1.86    -35.82      1.69
   69.1200      1.76      1.86    -35.58      1.69
   69.1400      1.52      1.86    -35.82      1.69
   69.1600      2.16      1.87    -35.19      1.69
   69.1800      1.96      1.87    -35.39      1.69
   69.2000      1.72      1.87    -35.63      1.69
   69.2200      2.08      1.87    -35.27      1.69
   69.2400      1.48      1.88    -35.88      1.69
   69.2600      1.96      1.88    -35.40      1.69
   69.2800      1.92      1.88    -35.44      1.69
   69.3000      2.32      1.88    -35.04      1.69
   69.3200      1.56      1.89    -35.81      1.69
   69.3400      1.88      1.89    -35.49      1.69
   69.3600      1.56      1.89    -35.81      1.69
   69.3800      1.92      1.89    -35.45      1.69
   69.4000      1.88      1.90    -35.50      1.69
   69.4200      1.52      1.90    -35.86      1.69
   69.4400      2.88      1.90    -34.50      1.69
   69.4600      1.72      1.90    -35.66      1.69
   69.4800      1.88      1.91    -35.51      1.69
   69.5000      1.84      1.91    -35.55      1.69
   69.5200      1.52      1.91    -35.87      1.69
   69.5400      2.00      1.92    -35.40      1.69
   69.5600      1.92      1.92    -35.48      1.69
   69.5800      2.00      1.92    -35.40      1.69
   69.6000      1.60      1.93    -35.81      1.69
   69.6200      2.32      1.93    -35.09      1.69
   69.6400      2.08      1.93    -35.33      1.69
   69.6600      2.68      1.94    -34.74      1.69
   69.6800      2.24      1.94    -35.18      1.69
   69.7000      1.48      1.95    -35.95      1.69
   69.7200      2.40      1.95    -35.03      1.69
   69.7400      1.80      1.95    -35.63      1.69
   69.7600      2.08      1.96    -35.36      1.69
   69.7800      2.16      1.96    -35.28      1.69
   69.8000      2.16      1.97    -35.29      1.69
   69.8200      2.08      1.97    -35.37      1.69
   69.8400      1.72      1.97    -35.73      1.69
   69.8600      1.92      1.98    -35.54      1.69
   69.8800      2.12      1.98    -35.34      1.69
   69.9000      1.56      1.99    -35.91      1.69
   69.9200      2.04      1.99    -35.43      1.69
   69.9400      2.32      2.00    -35.16      1.69
   69.9600      1.76      2.00    -35.72      1.69
   69.9800      2.28      2.01    -35.21      1.69
   70.0000      2.16      2.01    -35.33      1.69
   70.0200      2.16      2.02    -35.34      1.69
   70.0400      2.04      2.03    -35.47      1.69
   70.0600      2.28      2.03    -35.23      1.69
   70.0800      2.20      2.04    -35.32      1.69
   70.1000      2.12      2.04    -35.40      1.69
   70.1200      1.88      2.05    -35.65      1.69
   70.1400      1.96      2.06    -35.58      1.69
   70.1600      2.64      2.06    -34.90      1.69
   70.1800      2.08      2.07    -35.47      1.69
   70.2000      2.00      2.08    -35.56      1.69
   70.2200      2.00      2.08    -35.56      1.69
   70.2400      2.40      2.09    -35.17      1.69
   70.2600      2.04      2.10    -35.54      1.69
   70.2800      1.76      2.11    -35.83      1.69
   70.3000      2.08      2.12    -35.52      1.69
   70.3200      1.92      2.12    -35.68      1.69
   70.3400      2.52      2.13    -35.09      1.69
   70.3600      2.24      2.14    -35.38      1.69
   70.3800      2.48      2.15    -35.15      1.69
   70.4000      2.32      2.16    -35.32      1.69
   70.4200      2.32      2.17    -35.33      1.69
   70.4400      2.44      2.18    -35.22      1.69
   70.4600      2.04      2.19    -35.63      1.69
   70.4800      2.48      2.20    -35.20      1.69
   70.5000      2.40      2.21    -35.29      1.69
   70.5200      2.44      2.22    -35.26      1.69
   70.5400      2.16      2.23    -35.55      1.69
   70.5600      2.56      2.25    -35.17      1.69
   70.5800      1.88      2.26    -35.86      1.69
   70.6000      2.52      2.27    -35.23      1.69
   70.6200      2.16      2.29    -35.61      1.69
   70.6400      2.32      2.30    -35.46      1.69
   70.6600      1.72      2.31    -36.07      1.69
   70.6800      2.28      2.33    -35.53      1.69
   70.7000      1.80      2.35    -36.03      1.69
   70.7200      2.72      2.36    -35.12      1.69
   70.7400      2.12      2.38    -35.74      1.69
   70.7600      2.48      2.40    -35.40      1.69
   70.7800      1.84      2.41    -36.05      1.69
   70.8000      2.28      2.43    -35.63      1.69
   70.8200      1.84      2.45    -36.09      1.69
   70.8400      2.08      2.47    -35.87      1.69
   70.8600      2.16      2.49    -35.81      1.69
   70.8800      2.64      2.52    -35.36      1.69
   70.9000      2.24      2.54    -35.78      1.69
   70.9200      1.96      2.56    -36.08      1.69
   70.9400      2.36      2.59    -35.71      1.69
   70.9600      3.36      2.61    -34.73      1.69
   70.9800      2.00      2.64    -36.12      1.69
   71.0000      2.44      2.67    -35.71      1.69
   71.0200      2.36      2.70    -35.82      1.69
   71.0400      2.44      2.73    -35.77      1.69
   71.0600      2.92      2.76    -35.32      1.69
   71.0800      2.52      2.80    -35.76      1.69
   71.1000      2.16      2.84    -36.16      1.69
   71.1200      2.44      2.87    -35.91      1.69
   71.1400      2.56      2.91    -35.83      1.69
   71.1600      3.16      2.96    -35.28      1.69
   71.1800      3.12      3.00    -35.36      1.69
   71.2000      2.72      3.05    -35.81      1.69
   71.2200      2.28      3.10    -36.30      1.69
   71.2400      2.88      3.15    -35.75      1.69
   71.2600      2.68      3.20    -36.00      1.69
   71.2800      2.32      3.26    -36.42      1.69
   71.3000      3.08      3.32    -35.72      1.69
   71.3200      2.76      3.39    -36.11      1.69
   71.3400      3.76      3.46    -35.18      1.69
   71.3600      3.12      3.53    -35.89      1.69
   71.3800      3.44      3.61    -35.65      1.69
   71.4000      3.00      3.70    -36.18      1.69
   71.4200      3.28      3.79    -35.99      1.69
   71.4400      3.28      3.89    -36.09      1.69
   71.4600      3.32      3.99    -36.15      1.69
   71.4800      3.76      4.10    -35.82      1.69
   71.5000      3.00      4.22    -36.70      1.69
   71.5200      3.40      4.35    -36.43      1.69
   71.5400      3.20      4.49    -36.77      1.70
   71.5600      3.24      4.64    -36.88      1.70
   71.5800      3.12      4.80    -37.16      1.70
   71.6000      4.24      4.98    -36.22      1.70
   71.6200      4.56      5.18    -36.10      1.70
   71.6400      4.20      5.39    -36.67      1.70
   71.6600      4.32      5.62    -36.78      1.70
   71.6800      4.76      5.87    -36.59      1.70
   71.7000      5.16      6.15    -36.47      1.70
   71.7200      5.56      6.46    -36.38      1.70
   71.7400      5.52      6.81    -36.77      1.70
   71.7600      6.36      7.19    -36.31      1.70
   71.7800      6.84      7.62    -36.26      1.70
   71.8000      7.28      8.10    -36.30      1.70
   71.8200      8.04      8.64    -36.08      1.70
   71.8400      8.44      9.25    -36.29      1.70
   71.8600     10.16      9.95    -35.27      1.70
   71.8800     11.00     10.75    -35.23      1.70
   71.9000     12.44     11.68    -34.72      1.70
   71.9200     12.60     12.76    -35.64      1.70
   71.9400     14.16     14.03    -35.35      1.70
   71.9600     15.56     15.56    -35.48      1.70
   71.9800     16.28     17.44    -36.64      1.70
   72.0000     17.24     19.79    -38.03      1.70
   72.0200     19.96     22.83    -38.35      1.70
   72.0400     23.72     26.86    -38.62      1.70
   72.0600     26.00     32.25    -41.73      1.70
   72.0800     34.44     39.53    -40.57      1.70
   72.1000     47.12     49.24    -37.60      1.70
   72.1200     64.20     61.94    -33.22      1.70
   72.1400     89.08     78.07    -24.47      1.70
   72.1600    110.28     97.70    -22.90      1.70
   72.1800    129.60    120.31    -26.19      1.70
   72.2000    147.92    144.18    -31.74      1.70
   72.2200    167.88    165.84    -33.44      1.70
   72.2400    183.88    180.24    -31.84      1.70
   72.2600    179.48    183.18    -39.18      1.70
   72.2800    160.68    174.66    -49.46      1.70
   72.3000    140.16    159.07    -54.39      1.70
   72.3200    133.32    141.91    -44.07      1.70
   72.3400    134.88    127.18    -27.78      1.70
   72.3600    123.76    116.88    -28.60      1.70
   72.3800    113.36    111.52    -33.64      1.70
   72.4000    107.24    110.39    -38.63      1.70
   72.4200    112.40    111.61    -34.69      1.70
   72.4400    119.20    112.25    -28.53      1.70
   72.4600    118.84    109.24    -25.88      1.70
   72.4800    109.60    101.22    -27.10      1.70
   72.5000     90.16     89.34    -34.66      1.70
   72.5200     75.48     75.92    -35.92      1.70
   72.5400     71.08     62.92    -27.32      1.70
   72.5600     60.16     51.41    -26.73      1.70
   72.5800     45.52     41.78    -31.74      1.70
   72.6000     33.48     34.05    -36.05      1.70
   72.6200     27.84     28.02    -35.66      1.70
   72.6400     23.64     23.41    -35.25      1.70
   72.6600     21.44     19.92    -33.96      1.70
   72.6800     20.24     17.26    -32.50      1.70
   72.7000     15.36     15.22    -35.34      1.70
   72.7200     13.80     13.61    -35.29      1.70
   72.7400     12.24     12.31    -35.55      1.70
   72.7600     10.88     11.24    -35.84      1.70
   72.7800      9.56     10.34    -36.26      1.70
   72.8000      9.96      9.57    -35.09      1.70
   72.8200      8.76      8.90    -35.62      1.70
   72.8400      8.28      8.32    -35.52      1.70
   72.8600      6.56      7.81    -36.73      1.70
   72.8800      6.36      7.36    -36.48      1.70
   72.9000      6.24      6.96    -36.20      1.70
   72.9200      5.64      6.60    -36.44      1.70
   72.9400      6.08      6.27    -35.67      1.70
   72.9600      5.28      5.98    -36.18      1.70
   72.9800      5.36      5.72    -35.84      1.70
   73.0000      4.56      5.48    -36.40      1.70
   73.0200      5.36      5.27    -35.39      1.70
   73.0400      5.24      5.07    -35.31      1.70
   73.0600      4.48      4.89    -35.89      1.70
   73.0800      4.60      4.72    -35.60      1.70
   73.1000      5.04      4.57    -35.01      1.70
   73.1200      4.44      4.43    -35.47      1.70
   73.1400      3.92      4.30    -35.86      1.70
   73.1600      4.44      4.18    -35.22      1.70
   73.1800      3.48      4.06    -36.06      1.70
   73.2000      3.60      3.96    -35.84      1.70
   73.2200      4.80      3.86    -34.54      1.70
   73.2400      3.64      3.77    -35.61      1.70
   73.2600      3.96      3.69    -35.21      1.70
   73.2800      4.32      3.61    -34.77      1.70
   73.3000      3.96      3.54    -35.06      1.70
   73.3200      3.96      3.47    -34.99      1.70
   73.3400      4.16      3.41    -34.73      1.70
   73.3600      3.40      3.34    -35.42      1.70
   73.3800      3.28      3.29    -35.49      1.70
   73.4000      3.52      3.23    -35.19      1.70
   73.4200      3.44      3.18    -35.22      1.70
   73.4400      3.40      3.14    -35.22      1.70
   73.4600      3.44      3.09    -35.13      1.70
   73.4800      3.28      3.05    -35.25      1.70
   73.5000      3.44      3.01    -35.05      1.70
   73.5200      3.84      2.97    -34.61      1.70
   73.5400      4.16      2.93    -34.25      1.70
   73.5600      3.20      2.90    -35.18      1.70
   73.5800      2.68      2.87    -35.67      1.70
   73.6000      3.04      2.84    -35.28      1.70
   73.6200      2.80      2.81    -35.49      1.70
   73.6400      2.48      2.78    -35.78      1.70
   73.6600      2.68      2.75    -35.55      1.70
   73.6800      2.60      2.73    -35.61      1.70
   73.7000      3.72      2.70    -34.46      1.70
   73.7200      3.28      2.68    -34.88      1.70
   73.7400      2.76      2.66    -35.38      1.70
   73.7600      2.44      2.64    -35.68      1.70
   73.7800      2.56      2.62    -35.54      1.70
   73.8000      3.04      2.60    -35.04      1.70
   73.8200      2.88      2.59    -35.19      1.70
   73.8400      2.48      2.57    -35.57      1.70
   73.8600      2.84      2.55    -35.19      1.70
   73.8800      2.72      2.54    -35.30      1.70
   73.9000      2.64      2.52    -35.36      1.70
   73.9200      2.56      2.51    -35.43      1.70
   73.9400      2.64      2.50    -35.34      1.70
   73.9600      2.84      2.49    -35.13      1.70
   73.9800      2.84      2.47    -35.11      1.70
   74.0000      2.60      2.46    -35.34      1.70
   74.0200      3.32      2.45    -34.61      1.70
   74.0400      3.08      2.44    -34.84      1.70
   74.0600      2.52      2.43    -35.39      1.70
   74.0800      2.40      2.43    -35.51      1.70
   74.1000      3.00      2.42    -34.90      1.70
   74.1200      2.20      2.41    -35.69      1.70
   74.1400      3.08      2.40    -34.80      1.70
   74.1600      2.00      2.40    -35.88      1.70
   74.1800      2.96      2.39    -34.91      1.71
   74.2000      2.52      2.38    -35.34      1.71
   74.2200      2.52      2.38    -35.34      1.71
   74.2400      2.16      2.38    -35.70      1.71
   74.2600      2.40      2.37    -35.45      1.71
   74.2800      2.28      2.37    -35.57      1.71
   74.3000      2.40      2.36    -35.44      1.71
   74.3200      2.36      2.36    -35.48      1.71
   74.3400      2.48      2.36    -35.36      1.71
   74.3600      2.40      2.36    -35.44      1.71
   74.3800      2.52      2.36    -35.32      1.71
   74.4000      2.36      2.35    -35.47      1.71
   74.4200      1.96      2.35    -35.87      1.71
   74.4400      2.80      2.35    -35.03      1.71
   74.4600      2.84      2.35    -34.99      1.71
   74.4800      2.20      2.35    -35.63      1.71
   74.5000      2.32      2.36    -35.52      1.71
   74.5200      2.04      2.36    -35.80      1.71
   74.5400      2.68      2.36    -35.16      1.71
   74.5600      2.72      2.36    -35.12      1.71
   74.5800      2.88      2.37    -34.97      1.71
   74.6000      2.44      2.37    -35.41      1.71
   74.6200      3.00      2.37    -34.85      1.71
   74.6400      2.24      2.38    -35.62      1.71
   74.6600      2.40      2.38    -35.46      1.71
   74.6800      2.40      2.39    -35.47      1.71
   74.7000      2.60      2.39    -35.27      1.71
   74.7200      2.80      2.40    -35.08      1.71
   74.7400      2.76      2.41    -35.13      1.71
   74.7600      2.36      2.42    -35.54      1.71
   74.7800      3.04      2.43    -34.87      1.71
   74.8000      2.16      2.44    -35.76      1.71
   74.8200      2.84      2.45    -35.09      1.71
   74.8400      3.00      2.46    -34.94      1.71
   74.8600      2.64      2.47    -35.31      1.71
   74.8800      2.52      2.48    -35.44      1.71
   74.9000      3.04      2.50    -34.94      1.71
   74.9200      2.84      2.51    -35.15      1.71
   74.9400      2.60      2.53    -35.41      1.71
   74.9600      2.88      2.55    -35.15      1.71
   74.9800      2.88      2.57    -35.17      1.71
   75.0000      2.24      2.59    -35.83      1.71
   75.0200      2.84      2.61    -35.25      1.71
   75.0400      2.88      2.63    -35.23      1.71
   75.0600      2.84      2.66    -35.30      1.71
   75.0800      3.04      2.68    -35.12      1.71
   75.1000      2.24      2.71    -35.95      1.71
   75.1200      2.84      2.74    -35.38      1.71
   75.1400      2.32      2.77    -35.93      1.71
   75.1600      3.00      2.81    -35.29      1.71
   75.1800      3.72      2.85    -34.61      1.71
   75.2000      3.52      2.89    -34.85      1.71
   75.2200      3.04      2.93    -35.37      1.71
   75.2400      3.64      2.98    -34.82      1.71
   75.2600      3.56      3.03    -34.95      1.71
   75.2800      2.44      3.08    -36.12      1.71
   75.3000      2.72      3.14    -35.90      1.71
   75.3200      3.72      3.21    -34.97      1.71
   75.3400      2.80      3.28    -35.96      1.71
   75.3600      3.84      3.36    -35.00      1.71
   75.3800      3.56      3.44    -35.36      1.71
   75.4000      3.60      3.53    -35.41      1.71
   75.4200      3.44      3.63    -35.67      1.71
   75.4400      3.40      3.74    -35.82      1.71
   75.4600      3.60      3.86    -35.74      1.71
   75.4800      3.48      4.00    -36.00      1.71
   75.5000      4.48      4.15    -35.15      1.71
   75.5200      4.64      4.31    -35.15      1.71
   75.5400      4.68      4.50    -35.30      1.71
   75.5600      5.28      4.71    -34.91      1.71
   75.5800      5.36      4.94    -35.06      1.71
   75.6000      5.00      5.21    -35.69      1.71
   75.6200      6.24      5.51    -34.75      1.71
   75.6400      6.36      5.85    -34.97      1.71
   75.6600      5.80      6.25    -35.93      1.71
   75.6800      7.92      6.71    -34.27      1.71
   75.7000      7.44      7.25    -35.29      1.71
   75.7200      8.76      7.89    -34.61      1.71
   75.7400      9.32      8.67    -34.83      1.71
   75.7600      9.64      9.64    -35.48      1.71
   75.7800     10.12     10.87    -36.23      1.71
   75.8000     10.44     12.48    -37.52      1.71
   75.8200     12.48     14.63    -37.63      1.71
   75.8400     14.96     17.53    -38.05      1.71
   75.8600     17.56     21.43    -39.35      1.71
   75.8800     23.36     26.59    -38.71      1.71
   75.9000     30.40     33.26    -38.34      1.71
   75.9200     40.68     41.58    -36.38      1.71
   75.9400     54.04     51.46    -32.90      1.71
   75.9600     66.28     62.44    -31.64      1.71
   75.9800     83.16     73.34    -25.66      1.71
   76.0000     91.00     82.11    -26.59      1.71
   76.0200     93.24     86.34    -28.58      1.71
   76.0400     90.76     84.81    -29.53      1.71
   76.0600     80.68     78.58    -33.38      1.71
   76.0800     68.44     70.18    -37.22      1.71
   76.1000     61.20     61.95    -36.23      1.71
   76.1200     48.52     55.35    -42.31      1.71
   76.1400     44.28     51.02    -42.22      1.71
   76.1600     44.04     49.08    -40.52      1.71
   76.1800     44.08     49.16    -40.56      1.71
   76.2000     50.20     50.48    -35.76      1.71
   76.2200     53.16     51.72    -34.04      1.71
   76.2400     51.16     51.41    -35.73      1.71
   76.2600     51.04     48.64    -33.08      1.71
   76.2800     46.96     43.71    -32.23      1.71
   76.3000     41.00     37.68    -32.16      1.71
   76.3200     34.72     31.59    -32.35      1.71
   76.3400     27.32     26.06    -34.22      1.71
   76.3600     19.80     21.37    -37.05      1.71
   76.3800     15.56     17.56    -37.48      1.71
   76.4000     13.32     14.57    -36.73      1.71
   76.4200     11.72     12.27    -36.03      1.71
   76.4400      8.40     10.53    -37.61      1.71
   76.4600      8.44      9.22    -36.26      1.71
   76.4800      8.00      8.21    -35.69      1.71
   76.5000      7.28      7.42    -35.62      1.71
   76.5200      5.84      6.79    -36.43      1.71
   76.5400      6.84      6.28    -34.92      1.71
   76.5600      6.08      5.84    -35.24      1.71
   76.5800      5.16      5.48    -35.80      1.71
   76.6000      5.20      5.16    -35.44      1.71
   76.6200      5.56      4.88    -34.80      1.71
   76.6400      4.60      4.64    -35.52      1.71
   76.6600      4.92      4.42    -34.98      1.71
   76.6800      3.60      4.23    -36.11      1.71
   76.7000      4.44      4.06    -35.10      1.71
   76.7200      3.44      3.91    -35.95      1.71
   76.7400      3.76      3.77    -35.49      1.71
   76.7600      4.36      3.64    -34.76      1.71
   76.7800      3.56      3.53    -35.45      1.71
   76.8000      3.68      3.43    -35.23      1.71
   76.8200      2.84      3.33    -35.97      1.72
   76.8400      3.64      3.25    -35.09      1.72
   76.8600      3.76      3.17    -34.89      1.72
   76.8800      3.72      3.09    -34.85      1.72
   76.9000      3.84      3.03    -34.67      1.72
   76.9200      3.48      2.97    -34.97      1.72
   76.9400      3.84      2.91    -34.55      1.72
   76.9600      3.08      2.85    -35.25      1.72
   76.9800      3.88      2.80    -34.40      1.72
   77.0000      3.48      2.76    -34.76      1.72
   77.0200      3.76      2.72    -34.44      1.72
   77.0400      3.24      2.67    -34.91      1.72
   77.0600      3.08      2.64    -35.04      1.72
   77.0800      3.28      2.60    -34.80      1.72
   77.1000      2.80      2.57    -35.25      1.72
   77.1200      3.28      2.54    -34.74      1.72
   77.1400      2.84      2.51    -35.15      1.72
   77.1600      2.68      2.48    -35.28      1.72
   77.1800      3.04      2.45    -34.89      1.72
   77.2000      2.64      2.43    -35.27      1.72
   77.2200      2.88      2.40    -35.00      1.72
   77.2400      2.60      2.38    -35.26      1.72
   77.2600      2.32      2.36    -35.52      1.72
   77.2800      2.88      2.34    -34.94      1.72
   77.3000      2.24      2.32    -35.56      1.72
   77.3200      2.12      2.30    -35.66      1.72
   77.3400      2.92      2.29    -34.85      1.72
   77.3600      2.64      2.27    -35.11      1.72
   77.3800      2.88      2.25    -34.85      1.72
   77.4000      2.64      2.24    -35.08      1.72
   77.4200      2.24      2.22    -35.46      1.72
   77.4400      2.60      2.21    -35.09      1.72
   77.4600      2.56      2.20    -35.12      1.72
   77.4800      1.88      2.18    -35.78      1.72
   77.5000      2.76      2.17    -34.89      1.72
   77.5200      1.92      2.16    -35.72      1.72
   77.5400      2.48      2.15    -35.15      1.72
   77.5600      2.60      2.14    -35.02      1.72
   77.5800      2.60      2.13    -35.01      1.72
   77.6000      2.64      2.12    -34.96      1.72
   77.6200      2.56      2.11    -35.03      1.72
   77.6400      2.32      2.10    -35.26      1.72
   77.6600      2.60      2.09    -34.97      1.72
   77.6800      2.32      2.08    -35.24      1.72
   77.7000      2.60      2.08    -34.96      1.72
   77.7200      1.60      2.07    -35.95      1.72
   77.7400      1.72      2.06    -35.82      1.72
   77.7600      1.64      2.05    -35.89      1.72
   77.7800      2.16      2.05    -35.37      1.72
   77.8000      3.00      2.04    -34.52      1.72
   77.8200      2.00      2.03    -35.51      1.72
   77.8400      1.96      2.03    -35.55      1.72
   77.8600      2.04      2.02    -35.46      1.72
   77.8800      2.12      2.01    -35.37      1.72
   77.9000      2.12      2.01    -35.37      1.72
   77.9200      2.40      2.00    -35.08      1.72
   77.9400      2.00      2.00    -35.48      1.72
   77.9600      2.20      1.99    -35.27      1.72
   77.9800      1.84      1.99    -35.63      1.72
   78.0000      2.68      1.98    -34.78      1.72
   78.0200      2.36      1.98    -35.10      1.72
   78.0400      2.32      1.97    -35.13      1.72
   78.0600      2.16      1.97    -35.29      1.72
   78.0800      1.96      1.97    -35.49      1.72
   78.1000      2.08      1.96    -35.36      1.72
   78.1200      1.64      1.96    -35.80      1.72
   78.1400      1.72      1.95    -35.71      1.72
   78.1600      1.88      1.95    -35.55      1.72
   78.1800      1.76      1.95    -35.67      1.72
   78.2000      1.80      1.94    -35.62      1.72
   78.2200      1.88      1.94    -35.54      1.72
   78.2400      1.76      1.93    -35.65      1.72
   78.2600      2.00      1.93    -35.41      1.72
   78.2800      2.12      1.93    -35.29      1.72
   78.3000      2.48      1.93    -34.93      1.72
   78.3200      2.16      1.92    -35.24      1.72
   78.3400      1.76      1.92    -35.64      1.72
   78.3600      1.80      1.92    -35.60      1.72
   78.3800      1.68      1.91    -35.71      1.72
   78.4000      1.76      1.91    -35.63      1.72
   78.4200      2.08      1.91    -35.31      1.72
   78.4400      1.80      1.91    -35.59      1.72
   78.4600      2.20      1.90    -35.18      1.72
   78.4800      1.84      1.90    -35.54      1.72
   78.5000      2.16      1.90    -35.22      1.72
   78.5200      1.84      1.90    -35.54      1.72
   78.5400      2.00      1.89    -35.37      1.72
   78.5600      1.96      1.89    -35.41      1.72
   78.5800      2.16      1.89    -35.21      1.72
   78.6000      2.20      1.89    -35.17      1.72
   78.6200      1.72      1.88    -35.64      1.72
   78.6400      2.04      1.88    -35.32      1.72
   78.6600      1.76      1.88    -35.60      1.72
   78.6800      1.96      1.88    -35.40      1.72
   78.7000      1.76      1.88    -35.60      1.72
   78.7200      1.56      1.87    -35.79      1.72
   78.7400      2.32      1.87    -35.03      1.72
   78.7600      1.88      1.87    -35.47      1.72
   78.7800      1.64      1.87    -35.71      1.72
   78.8000      2.20      1.87    -35.15      1.72
   78.8200      1.96      1.86    -35.38      1.72
   78.8400      2.28      1.86    -35.06      1.72
   78.8600      2.00      1.86    -35.34      1.72
   78.8800      1.76      1.86    -35.58      1.72
   78.9000      2.12      1.86    -35.22      1.72
   78.9200      2.16      1.86    -35.18      1.72
   78.9400      1.56      1.86    -35.78      1.72
   78.9600      2.04      1.85    -35.29      1.72
   78.9800      1.48      1.85    -35.85      1.72
   79.0000      1.92      1.85    -35.41      1.72
   79.0200      1.56      1.85    -35.77      1.72
   79.0400      1.48      1.85    -35.85      1.72
   79.0600      2.00      1.85    -35.33      1.72
   79.0800      1.80      1.85    -35.53      1.72
   79.1000      2.28      1.84    -35.04      1.72
   79.1200      2.04      1.84    -35.28      1.72
   79.1400      2.08      1.84    -35.24      1.72
   79.1600      1.88      1.84    -35.44      1.72
   79.1800      1.76      1.84    -35.56      1.72
   79.2000      1.60      1.84    -35.72      1.72
   79.2200      1.96      1.84    -35.36      1.72
   79.2400      1.68      1.84    -35.64      1.72
   79.2600      1.88      1.84    -35.44      1.72
   79.2800      2.08      1.83    -35.23      1.72
   79.3000      1.92      1.83    -35.39      1.72
   79.3200      1.60      1.83    -35.71      1.72
   79.3400      1.80      1.83    -35.51      1.72
   79.3600      1.84      1.83    -35.47      1.72
   79.3800      1.80      1.83    -35.51      1.72
   79.4000      1.80      1.83    -35.51      1.72
   79.4200      1.88      1.83    -35.43      1.72
   79.4400      1.76      1.83    -35.55      1.72
   79.4600      1.84      1.83    -35.47      1.73
   79.4800      1.60      1.82    -35.70      1.73
   79.5000      1.44      1.82    -35.86      1.73
   79.5200      1.80      1.82    -35.50      1.73
   79.5400      1.40      1.82    -35.90      1.73
   79.5600      1.48      1.82    -35.82      1.73
   79.5800      1.68      1.82    -35.62      1.73
   79.6000      1.80      1.82    -35.50      1.73
   79.6200      2.12      1.82    -35.18      1.73
   79.6400      1.32      1.82    -35.98      1.73
   79.6600      1.92      1.82    -35.38      1.73
   79.6800      1.88      1.82    -35.42      1.73
   79.7000      1.68      1.82    -35.62      1.73
   79.7200      1.68      1.81    -35.61      1.73
   79.7400      1.96      1.81    -35.33      1.73
   79.7600      1.64      1.81    -35.65      1.73
   79.7800      2.12      1.81    -35.17      1.73
   79.8000      1.80      1.81    -35.49      1.73
   79.8200      1.80      1.81    -35.49      1.73
   79.8400      1.44      1.81    -35.85      1.73
   79.8600      1.36      1.81    -35.93      1.73
   79.8800      1.68      1.81    -35.61      1.73
   79.9000      1.60      1.81    -35.69      1.73
   79.9200      1.76      1.81    -35.53      1.73
   79.9400      1.28      1.81    -36.01      1.73
   79.9600      1.52      1.79    -35.75      1.73
   79.9800      1.92      1.79    -35.35      1.73
   80.0000      1.60      1.79    -35.67      1.73
   80.0200      1.68      1.79    -35.59      1.73
   80.0400      2.24      1.79    -35.03      1.73
   80.0600      2.00      1.79    -35.27      1.73
   80.0800      2.16      1.79    -35.11      1.73
   80.1000      1.80      1.78    -35.46      1.73
   80.1200      1.36      1.78    -35.90      1.73
   80.1400      1.88      1.78    -35.38      1.73
   80.1600      2.16      1.77    -35.09      1.73
   80.1800      2.00      1.77    -35.25      1.73
   80.2000      1.76      1.77    -35.49      1.73
   80.2200      1.80      1.77    -35.45      1.73
   80.2400      1.44      1.77    -35.81      1.73
   80.2600      1.64      1.77    -35.61      1.73
   80.2800      1.56      1.77    -35.69      1.73
   80.3000      1.36      1.77    -35.89      1.73
   80.3200      1.76      1.77    -35.49      1.73
   80.3400      1.64      1.77    -35.61      1.73
   80.3600      1.44      1.77    -35.81      1.73
   80.3800      1.76      1.77    -35.49      1.73
   80.4000      1.96      1.77    -35.29      1.73
   80.4200      1.60      1.77    -35.65      1.73
   80.4400      1.48      1.77    -35.77      1.73
   80.4600      1.80      1.77    -35.45      1.73
   80.4800      1.56      1.77    -35.69      1.73
   80.5000      1.56      1.77    -35.69      1.73
   80.5200      1.60      1.77    -35.65      1.73
   80.5400      1.40      1.77    -35.85      1.73
   80.5600      1.52      1.77    -35.73      1.73
   80.5800      1.56      1.77    -35.69      1.73
   80.6000      1.20      1.77    -36.05      1.73
   80.6200      1.68      1.77    -35.57      1.73
   80.6400      1.48      1.77    -35.77      1.73
   80.6600      1.68      1.77    -35.57      1.73
   80.6800      1.76      1.77    -35.49      1.73
   80.7000      2.48      1.77    -34.77      1.73
   80.7200      1.64      1.77    -35.61      1.73
   80.7400      1.80      1.77    -35.45      1.73
   80.7600      1.64      1.77    -35.61      1.73
   80.7800      1.64      1.77    -35.61      1.73
   80.8000      1.64      1.76    -35.60      1.73
   80.8200      1.80      1.76    -35.44      1.73
   80.8400      2.00      1.76    -35.24      1.73
   80.8600      1.28      1.76    -35.96      1.73
   80.8800      2.12      1.76    -35.12      1.73
   80.9000      1.88      1.76    -35.36      1.73
   80.9200      2.16      1.76    -35.08      1.73
   80.9400      1.84      1.76    -35.40      1.73
   80.9600      1.88      1.76    -35.36      1.73
   80.9800      1.56      1.76    -35.68      1.73
   81.0000      1.80      1.76    -35.44      1.73
   81.0200      1.72      1.76    -35.52      1.73
   81.0400      1.84      1.76    -35.40      1.73
   81.0600      2.08      1.76    -35.16      1.73
   81.0800      2.00      1.76    -35.24      1.73
   81.1000      1.96      1.76    -35.28      1.73
   81.1200      1.48      1.76    -35.76      1.73
   81.1400      1.80      1.76    -35.44      1.73
   81.1600      1.64      1.76    -35.60      1.73
   81.1800      1.56      1.76    -35.68      1.73
   81.2000      1.52      1.76    -35.72      1.73
   81.2200      1.36      1.76    -35.88      1.73
   81.2400      1.96      1.76    -35.28      1.73
   81.2600      1.68      1.76    -35.56      1.73
   81.2800      2.20      1.76    -35.04      1.73
   81.3000      1.96      1.76    -35.28      1.73
   81.3200      1.88      1.76    -35.36      1.73
   81.3400      1.96      1.76    -35.28      1.73
   81.3600      2.00      1.76    -35.24      1.73
   81.3800      1.56      1.76    -35.68      1.73
   81.4000      1.72      1.76    -35.52      1.73
   81.4200      1.88      1.76    -35.36      1.73
   81.4400      1.92      1.76    -35.32      1.73
   81.4600      1.80      1.76    -35.44      1.73
   81.4800      1.52      1.76    -35.72      1.73
   81.5000      1.40      1.76    -35.84      1.73
   81.5200      1.64      1.76    -35.60      1.73
   81.5400      1.44      1.76    -35.80      1.73
   81.5600      1.80      1.76    -35.44      1.73
   81.5800      1.16      1.76    -36.08      1.73
   81.6000      1.92      1.76    -35.32      1.73
   81.6200      1.68      1.76    -35.56      1.73
   81.6400      2.24      1.76    -35.00      1.73
   81.6600      1.60      1.76    -35.64      1.73
   81.6800      2.40      1.76    -34.84      1.73
   81.7000      1.32      1.76    -35.92      1.73
   81.7200      1.40      1.76    -35.84      1.73
   81.7400      1.76      1.76    -35.48      1.73
   81.7600      1.52      1.76    -35.72      1.73
   81.7800      1.44      1.76    -35.80      1.73
   81.8000      2.08      1.76    -35.16      1.73
   81.8200      1.40      1.76    -35.84      1.73
   81.8400      1.64      1.76    -35.60      1.73
   81.8600      1.56      1.76    -35.68      1.73
   81.8800      1.40      1.76    -35.84      1.73
   81.9000      2.16      1.76    -35.08      1.73
   81.9200      2.24      1.76    -35.00      1.73
   81.9400      1.88      1.76    -35.36      1.73
   81.9600      2.04      1.76    -35.20      1.73
   81.9800      1.48      1.76    -35.76      1.73
   82.0000      2.08      1.76    -35.16      1.73
   82.0200      1.44      1.76    -35.80      1.73
   82.0400      1.08      1.76    -36.16      1.73
   82.0600      1.28      1.76    -35.96      1.73
   82.0800      1.52      1.76    -35.72      1.73
   82.1000      1.60      1.76    -35.64      1.74
   82.1200      1.52      1.76    -35.72      1.74
   82.1400      1.76      1.76    -35.48      1.74
   82.1600      1.64      1.76    -35.60      1.74
   82.1800      1.64      1.76    -35.60      1.74
   82.2000      1.40      1.76    -35.84      1.74
   82.2200      1.92      1.76    -35.32      1.74
   82.2400      1.80      1.76    -35.44      1.74
   82.2600      1.80      1.76    -35.44      1.74
   82.2800      1.64      1.76    -35.60      1.74
   82.3000      1.56      1.76    -35.68      1.74
   82.3200      1.48      1.76    -35.76      1.74
   82.3400      1.64      1.76    -35.60      1.74
   82.3600      2.32      1.76    -34.92      1.74
   82.3800      1.88      1.76    -35.36      1.74
   82.4000      1.36      1.76    -35.88      1.74
   82.4200      1.96      1.76    -35.28      1.74
   82.4400      1.64      1.76    -35.60      1.74
   82.4600      1.96      1.76    -35.28      1.74
   82.4800      2.16      1.76    -35.08      1.74
   82.5000      2.00      1.76    -35.24      1.74
   82.5200      1.56      1.76    -35.68      1.74
   82.5400      1.60      1.76    -35.64      1.74
   82.5600      1.36      1.76    -35.88      1.74
   82.5800      1.92      1.76    -35.32      1.74
   82.6000      1.56      1.76    -35.68      1.74
   82.6200      2.16      1.76    -35.08      1.74
   82.6400      1.48      1.75    -35.75      1.74
   82.6600      1.48      1.75    -35.75      1.74
   82.6800      1.08      1.75    -36.15      1.74
   82.7000      1.92      1.75    -35.31      1.74
   82.7200      1.64      1.75    -35.59      1.74
   82.7400      1.64      1.75    -35.59      1.74
   82.7600      1.64      1.75    -35.59      1.74
   82.7800      1.52      1.75    -35.71      1.74
   82.8000      1.52      1.75    -35.71      1.74
   82.8200      2.12      1.75    -35.11      1.74
   82.8400      2.24      1.75    -34.99      1.74
   82.8600      1.44      1.75    -35.79      1.74
   82.8800      1.52      1.75    -35.71      1.74
   82.9000      1.96      1.75    -35.27      1.74
   82.9200      1.52      1.75    -35.71      1.74
   82.9400      1.64      1.75    -35.59      1.74
   82.9600      1.84      1.75    -35.39      1.74
   82.9800      1.60      1.75    -35.63      1.74
   83.0000      2.20      1.75    -35.03      1.74
   83.0200      1.96      1.75    -35.27      1.74
   83.0400      1.48      1.75    -35.75      1.74
   83.0600      1.68      1.76    -35.56      1.74
   83.0800      1.52      1.76    -35.72      1.74
   83.1000      1.92      1.76    -35.32      1.74
   83.1200      1.36      1.76    -35.88      1.74
   83.1400      1.44      1.76    -35.80      1.74
   83.1600      2.00      1.76    -35.24      1.74
   83.1800      1.96      1.76    -35.28      1.74
   83.2000      1.44      1.76    -35.80      1.74
   83.2200      1.92      1.76    -35.32      1.74
   83.2400      1.52      1.76    -35.72      1.74
   83.2600      1.72      1.76    -35.52      1.74
   83.2800      1.96      1.76    -35.28      1.74
   83.3000      1.20      1.76    -36.04      1.74
   83.3200      1.96      1.76    -35.28      1.74
   83.3400      1.64      1.77    -35.61      1.74
   83.3600      1.80      1.77    -35.45      1.74
   83.3800      2.08      1.77    -35.17      1.74
   83.4000      2.04      1.77    -35.21      1.74
   83.4200      1.76      1.77    -35.49      1.74
   83.4400      2.04      1.77    -35.21      1.74
   83.4600      1.72      1.77    -35.53      1.74
   83.4800      1.76      1.77    -35.49      1.74
   83.5000      1.88      1.77    -35.37      1.74
   83.5200      1.52      1.77    -35.73      1.74
   83.5400      1.52      1.77    -35.73      1.74
   83.5600      1.64      1.77    -35.61      1.74
   83.5800      1.76      1.77    -35.49      1.74
   83.6000      1.84      1.77    -35.41      1.74
   83.6200      1.88      1.77    -35.37      1.74
   83.6400      1.44      1.77    -35.81      1.74
   83.6600      2.24      1.77    -35.01      1.74
   83.6800      1.60      1.77    -35.65      1.74
   83.7000      1.76      1.77    -35.49      1.74
   83.7200      1.88      1.76    -35.36      1.74
   83.7400      1.44      1.76    -35.80      1.74
   83.7600      1.16      1.76    -36.08      1.74
   83.7800      1.52      1.76    -35.72      1.74
   83.8000      1.88      1.76    -35.36      1.74
   83.8200      1.80      1.76    -35.44      1.74
   83.8400      1.60      1.76    -35.64      1.74
   83.8600      1.44      1.76    -35.80      1.74
   83.8800      1.44      1.76    -35.80      1.74
   83.9000      2.16      1.76    -35.08      1.74
   83.9200      2.12      1.76    -35.12      1.74
   83.9400      2.00      1.75    -35.23      1.74
   83.9600      1.64      1.76    -35.60      1.74
   83.9800      1.76      1.76    -35.48      1.74
   84.0000      2.28      1.76    -34.96      1.74
   84.0200      1.64      1.76    -35.60      1.74
   84.0400      1.60      1.76    -35.64      1.74
   84.0600      2.64      1.76    -34.60      1.74
   84.0800      1.88      1.76    -35.36      1.74
   84.1000      1.84      1.76    -35.40      1.74
   84.1200      1.68      1.76    -35.56      1.74
   84.1400      1.72      1.76    -35.52      1.74
   84.1600      1.68      1.76    -35.56      1.74
   84.1800      1.88      1.76    -35.36      1.74
   84.2000      1.48      1.76    -35.76      1.74
   84.2200      1.36      1.76    -35.88      1.74
   84.2400      1.68      1.76    -35.56      1.74
   84.2600      1.84      1.76    -35.40      1.74
   84.2800      1.88      1.76    -35.36      1.74
   84.3000      2.08      1.76    -35.16      1.74
   84.3200      1.68      1.76    -35.56      1.74
   84.3400      1.60      1.76    -35.64      1.74
   84.3600      1.64      1.76    -35.60      1.74
   84.3800      1.68      1.76    -35.56      1.74
   84.4000      1.72      1.76    -35.52      1.74
   84.4200      1.92      1.76    -35.32      1.74
   84.4400      1.84      1.76    -35.40      1.74
   84.4600      1.60      1.76    -35.64      1.74
   84.4800      1.92      1.76    -35.32      1.74
   84.5000      1.68      1.76    -35.56      1.74
   84.5200      1.48      1.76    -35.76      1.74
   84.5400      2.04      1.76    -35.20      1.74
   84.5600      1.20      1.76    -36.04      1.74
   84.5800      1.68      1.76    -35.56      1.74
   84.6000      1.44      1.76    -35.80      1.74
   84.6200      1.64      1.76    -35.60      1.74
   84.6400      1.40      1.76    -35.84      1.74
   84.6600      1.84      1.76    -35.40      1.74
   84.6800      1.96      1.76    -35.28      1.74
   84.7000      1.92      1.76    -35.32      1.74
   84.7200      2.08      1.76    -35.16      1.74
   84.7400      1.84      1.76    -35.40      1.75
   84.7600      1.60      1.76    -35.64      1.75
   84.7800      1.72      1.76    -35.52      1.75
   84.8000      1.88      1.76    -35.36      1.75
   84.8200      2.00      1.76    -35.24      1.75
   84.8400      1.84      1.76    -35.40      1.75
   84.8600      2.00      1.76    -35.24      1.75
   84.8800      1.60      1.76    -35.64      1.75
   84.9000      1.60      1.76    -35.64      1.75
   84.9200      1.80      1.76    -35.44      1.75
   84.9400      1.52      1.76    -35.72      1.75
   84.9600      1.92      1.76    -35.32      1.75
   84.9800      1.88      1.76    -35.36      1.75
   85.0000      1.44      1.76    -35.80      1.75
   85.0200      1.60      1.76    -35.64      1.75
   85.0400      1.52      1.76    -35.72      1.75
   85.0600      1.84      1.76    -35.40      1.75
   85.0800      1.76      1.76    -35.48      1.75
   85.1000      1.84      1.77    -35.41      1.75
   85.1200      1.88      1.77    -35.37      1.75
   85.1400      1.44      1.77    -35.81      1.75
   85.1600      1.68      1.77    -35.57      1.75
   85.1800      2.08      1.77    -35.17      1.75
   85.2000      1.44      1.77    -35.81      1.75
   85.2200      1.88      1.77    -35.37      1.75
   85.2400      1.72      1.77    -35.53      1.75
   85.2600      1.92      1.77    -35.33      1.75
   85.2800      1.72      1.77    -35.53      1.75
   85.3000      2.08      1.77    -35.17      1.75
   85.3200      1.56      1.77    -35.69      1.75
   85.3400      1.60      1.77    -35.65      1.75
   85.3600      1.20      1.77    -36.05      1.75
   85.3800      1.60      1.77    -35.65      1.75
   85.4000      1.20      1.77    -36.05      1.75
   85.4200      1.76      1.77    -35.49      1.75
   85.4400      1.28      1.77    -35.97      1.75
   85.4600      1.64      1.77    -35.61      1.75
   85.4800      1.68      1.77    -35.57      1.75
   85.5000      1.60      1.77    -35.65      1.75
   85.5200      1.56      1.77    -35.69      1.75
   85.5400      1.60      1.77    -35.65      1.75
   85.5600      1.96      1.77    -35.29      1.75
   85.5800      1.60      1.77    -35.65      1.75
   85.6000      1.48      1.77    -35.77      1.75
   85.6200      1.12      1.77    -36.13      1.75
   85.6400      1.40      1.77    -35.85      1.75
   85.6600      1.68      1.77    -35.57      1.75
   85.6800      1.60      1.77    -35.65      1.75
   85.7000      1.52      1.77    -35.73      1.75
   85.7200      1.68      1.77    -35.57      1.75
   85.7400      1.16      1.77    -36.09      1.75
   85.7600      1.28      1.77    -35.97      1.75
   85.7800      1.60      1.77    -35.65      1.75
   85.8000      1.96      1.77    -35.29      1.75
   85.8200      1.48      1.77    -35.77      1.75
   85.8400      1.84      1.77    -35.41      1.75
   85.8600      1.52      1.77    -35.73      1.75
   85.8800      1.76      1.77    -35.49      1.75
   85.9000      1.88      1.77    -35.37      1.75
   85.9200      1.64      1.77    -35.61      1.75
   85.9400      1.48      1.78    -35.78      1.75
   85.9600      1.48      1.78    -35.78      1.75
   85.9800      1.40      1.78    -35.86      1.75
   86.0000      2.16      1.78    -35.10      1.75
   86.0200      1.48      1.78    -35.78      1.75
   86.0400      1.88      1.78    -35.38      1.75
   86.0600      1.68      1.78    -35.58      1.75
   86.0800      1.28      1.78    -35.98      1.75
   86.1000      1.32      1.78    -35.94      1.75
   86.1200      1.76      1.78    -35.50      1.75
   86.1400      1.72      1.78    -35.54      1.75
   86.1600      1.24      1.78    -36.02      1.75
   86.1800      1.60      1.78    -35.66      1.75
   86.2000      1.40      1.78    -35.86      1.75
   86.2200      1.68      1.78    -35.58      1.75
   86.2400      1.24      1.78    -36.02      1.75
   86.2600      1.72      1.78    -35.54      1.75
   86.2800      1.60      1.78    -35.66      1.75
   86.3000      1.64      1.78    -35.62      1.75
   86.3200      1.44      1.78    -35.82      1.75
   86.3400      1.60      1.78    -35.66      1.75
   86.3600      1.80      1.78    -35.46      1.75
   86.3800      1.96      1.78    -35.30      1.75
   86.4000      1.68      1.78    -35.58      1.75
   86.4200      1.28      1.78    -35.98      1.75
   86.4400      1.64      1.78    -35.62      1.75
   86.4600      1.24      1.78    -36.02      1.75
   86.4800      1.84      1.78    -35.42      1.75
   86.5000      1.44      1.78    -35.82      1.75
   86.5200      1.68      1.78    -35.58      1.75
   86.5400      1.72      1.79    -35.55      1.75
   86.5600      1.20      1.79    -36.07      1.75
   86.5800      1.76      1.79    -35.51      1.75
   86.6000      1.76      1.79    -35.51      1.75
   86.6200      1.44      1.79    -35.83      1.75
   86.6400      1.72      1.79    -35.55      1.75
   86.6600      2.04      1.79    -35.23      1.75
   86.6800      1.56      1.79    -35.71      1.75
   86.7000      1.52      1.79    -35.75      1.75
   86.7200      1.32      1.79    -35.95      1.75
   86.7400      1.72      1.79    -35.55      1.75
   86.7600      1.52      1.79    -35.75      1.75
   86.7800      1.48      1.79    -35.79      1.75
   86.8000      2.08      1.79    -35.19      1.75
   86.8200      1.48      1.79    -35.79      1.75
   86.8400      1.56      1.79    -35.71      1.75
   86.8600      1.48      1.79    -35.79      1.75
   86.8800      1.44      1.79    -35.83      1.75
   86.9000      1.84      1.79    -35.43      1.75
   86.9200      1.68      1.79    -35.59      1.75
   86.9400      1.56      1.79    -35.71      1.75
   86.9600      1.96      1.79    -35.31      1.75
   86.9800      1.32      1.79    -35.95      1.75
   87.0000      1.48      1.80    -35.80      1.75
   87.0200      2.44      1.80    -34.84      1.75
   87.0400      1.60      1.80    -35.68      1.75
   87.0600      1.32      1.80    -35.96      1.75
   87.0800      1.40      1.80    -35.88      1.75
   87.1000      1.76      1.80    -35.52      1.75
   87.1200      1.64      1.80    -35.64      1.75
   87.1400      1.80      1.80    -35.48      1.75
   87.1600      1.44      1.80    -35.84      1.75
   87.1800      1.32      1.80    -35.96      1.75
   87.2000      1.40      1.80    -35.88      1.75
   87.2200      1.96      1.80    -35.32      1.75
   87.2400      1.48      1.80    -35.80      1.75
   87.2600      1.80      1.80    -35.48      1.75
   87.2800      1.76      1.80    -35.52      1.75
   87.3000      2.12      1.80    -35.16      1.75
   87.3200      1.84      1.80    -35.44      1.75
   87.3400      1.28      1.81    -36.01      1.75
   87.3600      1.48      1.81    -35.81      1.75
   87.3800      1.88      1.81    -35.41      1.76
   87.4000      2.12      1.81    -35.17      1.76
   87.4200      1.20      1.81    -36.09      1.76
   87.4400      1.84      1.81    -35.45      1.76
   87.4600      2.04      1.81    -35.25      1.76
   87.4800      1.96      1.81    -35.33      1.76
   87.5000      1.52      1.81    -35.77      1.76
   87.5200      1.36      1.81    -35.93      1.76
   87.5400      1.12      1.81    -36.17      1.76
   87.5600      1.84      1.81    -35.45      1.76
   87.5800      1.84      1.81    -35.45      1.76
   87.6000      1.48      1.81    -35.81      1.76
   87.6200      1.28      1.82    -36.02      1.76
   87.6400      1.40      1.82    -35.90      1.76
   87.6600      1.52      1.82    -35.78      1.76
   87.6800      1.56      1.82    -35.74      1.76
   87.7000      1.32      1.82    -35.98      1.76
   87.7200      1.44      1.82    -35.86      1.76
   87.7400      1.92      1.82    -35.38      1.76
   87.7600      1.96      1.82    -35.34      1.76
   87.7800      1.84      1.82    -35.46      1.76
   87.8000      2.04      1.82    -35.26      1.76
   87.8200      1.84      1.82    -35.46      1.76
   87.8400      1.60      1.83    -35.71      1.76
   87.8600      1.88      1.83    -35.43      1.76
   87.8800      1.92      1.83    -35.39      1.76
   87.9000      1.56      1.83    -35.75      1.76
   87.9200      1.84      1.83    -35.47      1.76
   87.9400      1.80      1.83    -35.51      1.76
   87.9600      1.48      1.83    -35.83      1.76
   87.9800      1.32      1.83    -35.99      1.76
   88.0000      1.80      1.83    -35.51      1.76
   88.0200      1.68      1.84    -35.64      1.76
   88.0400      1.72      1.84    -35.60      1.76
   88.0600      1.84      1.84    -35.48      1.76
   88.0800      1.40      1.84    -35.92      1.76
   88.1000      1.68      1.84    -35.64      1.76
   88.1200      1.88      1.84    -35.44      1.76
   88.1400      1.56      1.84    -35.76      1.76
   88.1600      1.68      1.84    -35.64      1.76
   88.1800      1.32      1.85    -36.01      1.76
   88.2000      1.60      1.85    -35.73      1.76
   88.2200      1.48      1.85    -35.85      1.76
   88.2400      1.92      1.85    -35.41      1.76
   88.2600      1.72      1.85    -35.61      1.76
   88.2800      1.52      1.85    -35.81      1.76
   88.3000      2.16      1.85    -35.17      1.76
   88.3200      1.84      1.86    -35.50      1.76
   88.3400      1.56      1.86    -35.78      1.76
   88.3600      1.72      1.86    -35.62      1.76
   88.3800      2.12      1.86    -35.22      1.76
   88.4000      1.64      1.86    -35.70      1.76
   88.4200      1.60      1.86    -35.74      1.76
   88.4400      1.52      1.87    -35.83      1.76
   88.4600      1.28      1.87    -36.07      1.76
   88.4800      1.92      1.87    -35.43      1.76
   88.5000      1.68      1.87    -35.67      1.76
   88.5200      1.24      1.87    -36.11      1.76
   88.5400      1.56      1.88    -35.80      1.76
   88.5600      1.88      1.88    -35.48      1.76
   88.5800      1.72      1.88    -35.64      1.76
   88.6000      1.56      1.88    -35.80      1.76
   88.6200      1.76      1.89    -35.61      1.76
   88.6400      1.60      1.89    -35.77      1.76
   88.6600      1.64      1.89    -35.73      1.76
   88.6800      1.68      1.89    -35.69      1.76
   88.7000      1.96      1.90    -35.42      1.76
   88.7200      1.76      1.90    -35.62      1.76
   88.7400      1.32      1.90    -36.06      1.76
   88.7600      1.76      1.90    -35.62      1.76
   88.7800      1.88      1.91    -35.51      1.76
   88.8000      1.48      1.91    -35.91      1.76
   88.8200      1.60      1.91    -35.79      1.76
   88.8400      1.72      1.92    -35.68      1.76
   88.8600      1.88      1.92    -35.52      1.76
   88.8800      1.84      1.92    -35.56      1.76
   88.9000      1.68      1.93    -35.73      1.76
   88.9200      1.32      1.93    -36.09      1.76
   88.9400      1.72      1.93    -35.69      1.76
   88.9600      2.08      1.94    -35.34      1.76
   88.9800      1.72      1.94    -35.70      1.76
   89.0000      1.76      1.95    -35.67      1.76
   89.0200      1.44      1.95    -35.99      1.76
   89.0400      1.84      1.95    -35.59      1.76
   89.0600      1.56      1.96    -35.88      1.76
   89.0800      1.84      1.96    -35.60      1.76
   89.1000      1.80      1.97    -35.65      1.76
   89.1200      1.60      1.97    -35.85      1.76
   89.1400      1.68      1.98    -35.78      1.76
   89.1600      1.68      1.98    -35.78      1.76
   89.1800      2.00      1.99    -35.47      1.76
   89.2000      1.60      1.99    -35.87      1.76
   89.2200      2.04      2.00    -35.44      1.76
   89.2400      2.16      2.01    -35.33      1.76
   89.2600      2.16      2.01    -35.33      1.76
   89.2800      2.28      2.02    -35.22      1.76
   89.3000      1.52      2.03    -35.99      1.76
   89.3200      1.48      2.03    -36.03      1.76
   89.3400      1.64      2.04    -35.88      1.76
   89.3600      1.44      2.05    -36.09      1.76
   89.3800      2.32      2.06    -35.22      1.76
   89.4000      1.64      2.07    -35.91      1.76
   89.4200      1.44      2.08    -36.12      1.76
   89.4400      2.00      2.08    -35.56      1.76
   89.4600      2.08      2.09    -35.49      1.76
   89.4800      2.00      2.10    -35.58      1.76
   89.5000      1.88      2.11    -35.71      1.76
   89.5200      1.44      2.13    -36.17      1.76
   89.5400      1.52      2.14    -36.10      1.76
   89.5600      2.00      2.15    -35.63      1.76
   89.5800      2.00      2.16    -35.64      1.76
   89.6000      2.12      2.18    -35.54      1.76
   89.6200      1.84      2.19    -35.83      1.76
   89.6400      1.80      2.20    -35.88      1.76
   89.6600      2.28      2.22    -35.42      1.76
   89.6800      1.92      2.24    -35.80      1.76
   89.7000      2.00      2.25    -35.73      1.76
   89.7200      2.24      2.27    -35.51      1.76
   89.7400      2.40      2.29    -35.37      1.76
   89.7600      1.92      2.31    -35.87      1.76
   89.7800      1.52      2.33    -36.29      1.76
   89.8000      2.56      2.36    -35.28      1.76
   89.8200      2.44      2.38    -35.42      1.76
   89.8400      2.08      2.41    -35.81      1.76
   89.8600      2.68      2.44    -35.24      1.76
   89.8800      2.28      2.47    -35.67      1.76
   89.9000      2.08      2.50    -35.90      1.76
   89.9200      2.36      2.53    -35.65      1.76
   89.9400      1.44      2.57    -36.61      1.76
   89.9600      2.36      2.61    -35.73      1.76
   89.9800      2.84      2.65    -35.29      1.76
   90.0000      2.16      2.69    -36.01      1.76
   90.0200      2.04      2.74    -36.18      1.76
   90.0400      2.80      2.79    -35.47      1.77
   90.0600      2.48      2.85    -35.85      1.77
   90.0800      2.48      2.91    -35.91      1.77
   90.1000      3.20      2.98    -35.26      1.77
   90.1200      2.88      3.05    -35.65      1.77
   90.1400      2.60      3.13    -36.01      1.77
   90.1600      2.96      3.22    -35.74      1.77
   90.1800      3.00      3.32    -35.80      1.77
   90.2000      2.76      3.42    -36.14      1.77
   90.2200      3.28      3.54    -35.74      1.77
   90.2400      3.68      3.67    -35.47      1.77
   90.2600      3.36      3.82    -35.94      1.77
   90.2800      3.64      3.98    -35.82      1.77
   90.3000      3.64      4.16    -36.00      1.77
   90.3200      4.48      4.37    -35.37      1.77
   90.3400      4.96      4.61    -35.13      1.77
   90.3600      5.24      4.88    -35.12      1.77
   90.3800      5.56      5.19    -35.11      1.77
   90.4000      4.24      5.56    -36.80      1.77
   90.4200      6.04      5.99    -35.43      1.77
   90.4400      5.96      6.49    -36.01      1.77
   90.4600      6.64      7.11    -35.95      1.77
   90.4800      7.52      7.89    -35.85      1.77
   90.5000      9.32      8.87    -35.03      1.77
   90.5200     11.68     10.17    -33.97      1.77
   90.5400     15.68     11.91    -31.71      1.77
   90.5600     15.96     14.25    -33.77      1.77
   90.5800     22.92     17.41    -29.97      1.77
   90.6000     26.56     21.59    -30.51      1.77
   90.6200     34.00     26.98    -28.46      1.77
   90.6400     39.28     33.67    -29.87      1.77
   90.6600     43.88     41.57    -33.17      1.77
   90.6800     45.48     50.26    -40.26      1.77
   90.7000     49.60     58.71    -44.59      1.77
   90.7200     58.28     65.21    -42.41      1.77
   90.7400     76.04     67.83    -27.27      1.77
   90.7600     89.88     65.70    -11.30      1.77
   90.7800     79.88     59.78    -15.38      1.77
   90.8000     58.12     52.06    -29.42      1.77
   90.8200     44.44     44.30    -35.34      1.77
   90.8400     31.08     37.60    -42.00      1.77
   90.8600     26.44     32.47    -41.51      1.77
   90.8800     23.96     29.10    -40.62      1.77
   90.9000     26.52     27.49    -36.45      1.77
   90.9200     25.32     27.52    -37.68      1.77
   90.9400     27.64     28.98    -36.82      1.77
   90.9600     29.24     31.50    -37.74      1.77
   90.9800     29.04     34.52    -40.96      1.77
   91.0000     32.16     37.14    -40.46      1.77
   91.0200     39.72     38.27    -34.03      1.77
   91.0400     47.60     37.19    -25.07      1.77
   91.0600     47.80     34.04    -21.72      1.77
   91.0800     40.72     29.69    -24.45      1.77
   91.1000     27.84     25.06    -32.70      1.77
   91.1200     20.20     20.76    -36.04      1.77
   91.1400     14.20     17.05    -38.33      1.77
   91.1600     12.20     14.02    -37.30      1.77
   91.1800      9.48     11.63    -37.63      1.77
   91.2000      7.68      9.79    -37.59      1.77
   91.2200      7.40      8.41    -36.49      1.77
   91.2400      6.36      7.37    -36.49      1.77
   91.2600      5.28      6.58    -36.78      1.77
   91.2800      5.08      5.97    -36.37      1.77
   91.3000      4.80      5.49    -36.17      1.77
   91.3200      3.76      5.10    -36.82      1.77
   91.3400      3.84      4.78    -36.42      1.77
   91.3600      3.68      4.50    -36.30      1.77
   91.3800      3.56      4.26    -36.18      1.77
   91.4000      3.08      4.06    -36.46      1.77
   91.4200      2.72      3.88    -36.64      1.77
   91.4400      2.68      3.72    -36.52      1.77
   91.4600      2.64      3.58    -36.42      1.77
   91.4800      3.16      3.45    -35.77      1.77
   91.5000      2.52      3.34    -36.30      1.77
   91.5200      2.44      3.24    -36.28      1.77
   91.5400      2.88      3.15    -35.75      1.77
   91.5600      3.36      3.06    -35.18      1.77
   91.5800      2.28      2.99    -36.19      1.77
   91.6000      2.48      2.92    -35.92      1.77
   91.6200      2.28      2.86    -36.06      1.77
   91.6400      2.16      2.80    -36.12      1.77
   91.6600      2.24      2.75    -35.99      1.77
   91.6800      3.00      2.70    -35.18      1.77
   91.7000      2.08      2.65    -36.05      1.77
   91.7200      2.24      2.61    -35.85      1.77
   91.7400      2.68      2.57    -35.37      1.77
   91.7600      2.00      2.53    -36.01      1.77
   91.7800      2.48      2.50    -35.50      1.77
   91.8000      2.80      2.47    -35.15      1.77
   91.8200      2.60      2.44    -35.32      1.77
   91.8400      1.88      2.41    -36.01      1.77
   91.8600      1.76      2.39    -36.11      1.77
   91.8800      1.88      2.36    -35.96      1.77
   91.9000      1.88      2.34    -35.94      1.77
   91.9200      1.64      2.32    -36.16      1.77
   91.9400      2.60      2.30    -35.18      1.77
   91.9600      2.00      2.28    -35.76      1.77
   91.9800      1.92      2.26    -35.82      1.77
   92.0000      1.80      2.24    -35.92      1.77
   92.0200      2.08      2.23    -35.63      1.77
   92.0400      2.36      2.21    -35.33      1.77
   92.0600      1.92      2.20    -35.76      1.77
   92.0800      1.84      2.18    -35.82      1.77
   92.1000      1.84      2.17    -35.81      1.77
   92.1200      1.84      2.16    -35.80      1.77
   92.1400      1.92      2.14    -35.70      1.77
   92.1600      2.24      2.13    -35.37      1.77
   92.1800      2.16      2.12    -35.44      1.77
   92.2000      1.76      2.11    -35.83      1.77
   92.2200      1.80      2.10    -35.78      1.77
   92.2400      1.80      2.09    -35.77      1.77
   92.2600      2.32      2.08    -35.24      1.77
   92.2800      2.00      2.07    -35.55      1.77
   92.3000      2.04      2.07    -35.51      1.77
   92.3200      1.84      2.06    -35.70      1.77
   92.3400      1.80      2.05    -35.73      1.77
   92.3600      2.00      2.04    -35.52      1.77
   92.3800      1.76      2.04    -35.76      1.77
   92.4000      1.92      2.03    -35.59      1.77
   92.4200      1.92      2.02    -35.58      1.77
   92.4400      1.96      2.02    -35.54      1.77
   92.4600      2.56      2.01    -34.93      1.77
   92.4800      1.40      2.01    -36.09      1.77
   92.5000      1.56      2.00    -35.92      1.77
   92.5200      1.96      1.99    -35.51      1.77
   92.5400      1.84      1.99    -35.63      1.77
   92.5600      1.52      1.98    -35.94      1.77
   92.5800      1.80      1.98    -35.66      1.77
   92.6000      2.16      1.97    -35.29      1.77
   92.6200      2.24      1.97    -35.21      1.77
   92.6400      1.96      1.97    -35.49      1.77
   92.6600      2.24      1.96    -35.20      1.77
   92.6800      2.24      1.96    -35.20      1.78
   92.7000      1.80      1.95    -35.63      1.78
   92.7200      1.68      1.95    -35.75      1.78
   92.7400      2.00      1.95    -35.43      1.78
   92.7600      1.88      1.94    -35.54      1.78
   92.7800      1.88      1.94    -35.54      1.78
   92.8000      1.76      1.94    -35.66      1.78
   92.8200      1.72      1.93    -35.69      1.78
   92.8400      1.64      1.93    -35.77      1.78
   92.8600      1.84      1.93    -35.57      1.78
   92.8800      1.88      1.92    -35.52      1.78
   92.9000      1.08      1.92    -36.32      1.78
   92.9200      2.08      1.92    -35.32      1.78
   92.9400      1.84      1.92    -35.56      1.78
   92.9600      2.12      1.91    -35.27      1.78
   92.9800      1.52      1.91    -35.87      1.78
   93.0000      2.20      1.91    -35.19      1.78
   93.0200      2.08      1.91    -35.31      1.78
   93.0400      1.96      1.90    -35.42      1.78
   93.0600      1.52      1.90    -35.86      1.78
   93.0800      2.12      1.90    -35.26      1.78
   93.1000      2.28      1.90    -35.10      1.78
   93.1200      1.92      1.90    -35.46      1.78
   93.1400      1.80      1.89    -35.57      1.78
   93.1600      1.40      1.89    -35.97      1.78
   93.1800      1.96      1.89    -35.41      1.78
   93.2000      1.36      1.89    -36.01      1.78
   93.2200      1.72      1.89    -35.65      1.78
   93.2400      1.96      1.88    -35.40      1.78
   93.2600      1.40      1.88    -35.96      1.78
   93.2800      1.64      1.88    -35.72      1.78
   93.3000      2.04      1.88    -35.32      1.78
   93.3200      1.24      1.88    -36.12      1.78
   93.3400      2.08      1.88    -35.28      1.78
   93.3600      2.12      1.87    -35.23      1.78
   93.3800      1.68      1.87    -35.67      1.78
   93.4000      1.16      1.87    -36.19      1.78
   93.4200      1.92      1.87    -35.43      1.78
   93.4400      1.68      1.87    -35.67      1.78
   93.4600      1.32      1.87    -36.03      1.78
   93.4800      1.76      1.87    -35.59      1.78
   93.5000      1.36      1.87    -35.99      1.78
   93.5200      2.16      1.86    -35.18      1.78
   93.5400      1.68      1.86    -35.66      1.78
   93.5600      1.64      1.86    -35.70      1.78
   93.5800      1.92      1.86    -35.42      1.78
   93.6000      1.44      1.86    -35.90      1.78
   93.6200      2.12      1.86    -35.22      1.78
   93.6400      1.32      1.86    -36.02      1.78
   93.6600      1.76      1.86    -35.58      1.78
   93.6800      1.68      1.86    -35.66      1.78
   93.7000      1.88      1.85    -35.45      1.78
   93.7200      1.44      1.85    -35.89      1.78
   93.7400      1.28      1.85    -36.05      1.78
   93.7600      1.88      1.85    -35.45      1.78
   93.7800      1.76      1.85    -35.57      1.78
   93.8000      1.72      1.85    -35.61      1.78
   93.8200      2.12      1.85    -35.21      1.78
   93.8400      1.68      1.85    -35.65      1.78
   93.8600      1.44      1.85    -35.89      1.78
   93.8800      2.08      1.85    -35.25      1.78
   93.9000      1.84      1.85    -35.49      1.78
   93.9200      1.52      1.84    -35.80      1.78
   93.9400      2.00      1.85    -35.33      1.78
   93.9600      1.44      1.85    -35.89      1.78
   93.9800      1.40      1.85    -35.93      1.78
   94.0000      1.52      1.85    -35.81      1.78
   94.0200      1.60      1.85    -35.73      1.78
   94.0400      1.68      1.85    -35.65      1.78
   94.0600      1.36      1.85    -35.97      1.78
   94.0800      1.64      1.85    -35.69      1.78
   94.1000      1.72      1.85    -35.61      1.78
   94.1200      1.80      1.85    -35.53      1.78
   94.1400      1.76      1.85    -35.57      1.78
   94.1600      1.60      1.85    -35.73      1.78
   94.1800      1.52      1.85    -35.81      1.78
   94.2000      1.64      1.85    -35.69      1.78
   94.2200      1.72      1.85    -35.61      1.78
   94.2400      1.72      1.85    -35.61      1.78
   94.2600      1.96      1.84    -35.36      1.78
   94.2800      1.88      1.84    -35.44      1.78
   94.3000      1.52      1.85    -35.81      1.78
   94.3200      1.28      1.85    -36.05      1.78
   94.3400      1.84      1.85    -35.49      1.78
   94.3600      1.48      1.85    -35.85      1.78
   94.3800      1.28      1.85    -36.05      1.78
   94.4000      1.80      1.85    -35.53      1.78
   94.4200      2.08      1.85    -35.25      1.78
   94.4400      1.60      1.85    -35.73      1.78
   94.4600      1.80      1.85    -35.53      1.78
   94.4800      2.08      1.85    -35.25      1.78
   94.5000      1.36      1.85    -35.97      1.78
   94.5200      1.60      1.84    -35.72      1.78
   94.5400      1.56      1.84    -35.76      1.78
   94.5600      1.84      1.84    -35.48      1.78
   94.5800      1.72      1.84    -35.60      1.78
   94.6000      1.96      1.84    -35.36      1.78
   94.6200      1.44      1.84    -35.88      1.78
   94.6400      1.56      1.84    -35.76      1.78
   94.6600      1.92      1.84    -35.40      1.78
   94.6800      1.68      1.84    -35.64      1.78
   94.7000      1.28      1.84    -36.04      1.78
   94.7200      1.40      1.84    -35.92      1.78
   94.7400      2.20      1.84    -35.12      1.78
   94.7600      1.88      1.84    -35.44      1.78
   94.7800      1.76      1.84    -35.56      1.78
   94.8000      1.72      1.84    -35.60      1.78
   94.8200      1.44      1.84    -35.88      1.78
   94.8400      1.72      1.84    -35.60      1.78
   94.8600      1.56      1.84    -35.76      1.78
   94.8800      1.56      1.84    -35.76      1.78
   94.9000      1.84      1.84    -35.48      1.78
   94.9200      1.84      1.84    -35.48      1.78
   94.9400      1.28      1.84    -36.04      1.78
   94.9600      1.56      1.84    -35.76      1.78
   94.9800      1.56      1.84    -35.76      1.78
   95.0000      1.28      1.84    -36.04      1.78
   95.0200      1.52      1.84    -35.80      1.78
   95.0400      1.64      1.84    -35.68      1.78
   95.0600      1.64      1.84    -35.68      1.78
   95.0800      1.84      1.84    -35.48      1.78
   95.1000      1.52      1.84    -35.80      1.78
   95.1200      2.04      1.84    -35.28      1.78
   95.1400      1.56      1.84    -35.76      1.78
   95.1600      1.80      1.84    -35.52      1.78
   95.1800      1.72      1.84    -35.60      1.78
   95.2000      1.16      1.84    -36.16      1.78
   95.2200      2.20      1.84    -35.12      1.78
   95.2400      2.16      1.84    -35.16      1.78
   95.2600      1.48      1.84    -35.84      1.78
   95.2800      1.16      1.84    -36.16      1.78
   95.3000      1.72      1.84    -35.60      1.78
   95.3200      2.04      1.84    -35.28      1.79
   95.3400      1.40      1.84    -35.92      1.79
   95.3600      1.44      1.84    -35.88      1.79
   95.3800      1.72      1.84    -35.60      1.79
   95.4000      1.84      1.84    -35.48      1.79
   95.4200      1.60      1.84    -35.72      1.79
   95.4400      1.44      1.84    -35.88      1.79
   95.4600      1.64      1.84    -35.68      1.79
   95.4800      1.68      1.84    -35.64      1.79
   95.5000      1.64      1.84    -35.68      1.79
   95.5200      1.56      1.84    -35.76      1.79
   95.5400      1.64      1.84    -35.68      1.79
   95.5600      1.56      1.84    -35.76      1.79
   95.5800      1.56      1.84    -35.76      1.79
   95.6000      1.68      1.84    -35.64      1.79
   95.6200      1.64      1.84    -35.68      1.79
   95.6400      1.56      1.84    -35.76      1.79
   95.6600      1.36      1.84    -35.96      1.79
   95.6800      2.28      1.84    -35.04      1.79
   95.7000      1.44      1.84    -35.88      1.79
   95.7200      1.64      1.84    -35.68      1.79
   95.7400      1.72      1.84    -35.60      1.79
   95.7600      1.40      1.84    -35.92      1.79
   95.7800      1.72      1.84    -35.60      1.79
   95.8000      2.00      1.84    -35.32      1.79
   95.8200      1.80      1.84    -35.52      1.79
   95.8400      1.56      1.84    -35.76      1.79
   95.8600      1.96      1.84    -35.36      1.79
   95.8800      1.80      1.84    -35.52      1.79
   95.9000      1.60      1.84    -35.72      1.79
   95.9200      1.92      1.84    -35.40      1.79
   95.9400      1.32      1.84    -36.00      1.79
   95.9600      1.44      1.84    -35.88      1.79
   95.9800      1.44      1.84    -35.88      1.79
   96.0000      2.24      1.84    -35.08      1.79
   96.0200      1.68      1.84    -35.64      1.79
   96.0400      1.84      1.84    -35.48      1.79
   96.0600      1.64      1.84    -35.68      1.79
   96.0800      1.72      1.84    -35.60      1.79
   96.1000      1.64      1.84    -35.68      1.79
   96.1200      1.68      1.84    -35.64      1.79
   96.1400      1.24      1.84    -36.08      1.79
   96.1600      1.52      1.84    -35.80      1.79
   96.1800      1.84      1.84    -35.48      1.79
   96.2000      1.24      1.84    -36.08      1.79
   96.2200      1.44      1.84    -35.88      1.79
   96.2400      1.76      1.84    -35.56      1.79
   96.2600      1.64      1.84    -35.68      1.79
   96.2800      2.04      1.84    -35.28      1.79
   96.3000      1.76      1.84    -35.56      1.79
   96.3200      1.64      1.84    -35.68      1.79
   96.3400      2.08      1.84    -35.24      1.79
   96.3600      1.40      1.84    -35.92      1.79
   96.3800      1.64      1.84    -35.68      1.79
   96.4000      1.92      1.84    -35.40      1.79
   96.4200      1.72      1.84    -35.60      1.79
   96.4400      1.68      1.84    -35.64      1.79
   96.4600      1.48      1.84    -35.84      1.79
   96.4800      1.72      1.84    -35.60      1.79
   96.5000      2.04      1.84    -35.28      1.79
   96.5200      1.88      1.84    -35.44      1.79
   96.5400      1.64      1.84    -35.68      1.79
   96.5600      1.44      1.84    -35.88      1.79
   96.5800      1.32      1.84    -36.00      1.79
   96.6000      1.80      1.84    -35.52      1.79
   96.6200      1.80      1.84    -35.52      1.79
   96.6400      1.72      1.84    -35.60      1.79
   96.6600      1.20      1.84    -36.12      1.79
   96.6800      1.48      1.84    -35.84      1.79
   96.7000      1.72      1.84    -35.60      1.79
   96.7200      1.48      1.84    -35.84      1.79
   96.7400      1.40      1.84    -35.92      1.79
   96.7600      1.64      1.85    -35.69      1.79
   96.7800      1.88      1.85    -35.45      1.79
   96.8000      2.04      1.85    -35.29      1.79
   96.8200      1.96      1.85    -35.37      1.79
   96.8400      2.52      1.85    -34.81      1.79
   96.8600      1.92      1.85    -35.41      1.79
   96.8800      1.36      1.85    -35.97      1.79
   96.9000      1.96      1.85    -35.37      1.79
   96.9200      1.32      1.85    -36.01      1.79
   96.9400      1.56      1.85    -35.77      1.79
   96.9600      1.40      1.85    -35.93      1.79
   96.9800      1.60      1.85    -35.73      1.79
   97.0000      1.40      1.85    -35.93      1.79
   97.0200      2.16      1.85    -35.17      1.79
   97.0400      1.24      1.85    -36.09      1.79
   97.0600      1.60      1.85    -35.73      1.79
   97.0800      2.16      1.85    -35.17      1.79
   97.1000      1.76      1.85    -35.57      1.79
   97.1200      1.72      1.85    -35.61      1.79
   97.1400      1.88      1.85    -35.45      1.79
   97.1600      1.88      1.85    -35.45      1.79
   97.1800      1.88      1.85    -35.45      1.79
   97.2000      1.60      1.85    -35.73      1.79
   97.2200      1.16      1.85    -36.17      1.79
   97.2400      1.56      1.85    -35.77      1.79
   97.2600      1.72      1.85    -35.61      1.79
   97.2800      1.64      1.85    -35.69      1.79
   97.3000      1.28      1.85    -36.05      1.79
   97.3200      2.04      1.85    -35.29      1.79
   97.3400      2.04      1.85    -35.29      1.79
   97.3600      1.72      1.86    -35.62      1.79
   97.3800      1.72      1.86    -35.62      1.79
   97.4000      1.28      1.86    -36.06      1.79
   97.4200      1.96      1.86    -35.38      1.79
   97.4400      1.40      1.86    -35.94      1.79
   97.4600      1.84      1.86    -35.50      1.79
   97.4800      2.00      1.86    -35.34      1.79
   97.5000      1.88      1.86    -35.46      1.79
   97.5200      2.00      1.86    -35.34      1.79
   97.5400      1.80      1.86    -35.54      1.79
   97.5600      1.44      1.86    -35.90      1.79
   97.5800      1.60      1.86    -35.74      1.79
   97.6000      1.80      1.86    -35.54      1.79
   97.6200      1.96      1.86    -35.38      1.79
   97.6400      1.64      1.86    -35.70      1.79
   97.6600      1.84      1.86    -35.50      1.79
   97.6800      1.80      1.86    -35.54      1.79
   97.7000      1.44      1.87    -35.91      1.79
   97.7200      1.52      1.88    -35.84      1.79
   97.7400      1.40      1.88    -35.96      1.79
   97.7600      2.28      1.88    -35.08      1.79
   97.7800      1.60      1.88    -35.76      1.79
   97.8000      1.32      1.88    -36.04      1.79
   97.8200      2.00      1.88    -35.36      1.79
   97.8400      1.84      1.88    -35.52      1.79
   97.8600      1.76      1.88    -35.60      1.79
   97.8800      1.84      1.88    -35.52      1.79
   97.9000      1.48      1.88    -35.88      1.79
   97.9200      1.28      1.88    -36.08      1.79
   97.9400      1.40      1.88    -35.96      1.79
   97.9600      2.24      1.88    -35.12      1.80
   97.9800      1.56      1.88    -35.80      1.80
   98.0000      2.40      1.89    -34.97      1.80
   98.0200      1.92      1.89    -35.45      1.80
   98.0400      1.60      1.89    -35.77      1.80
   98.0600      2.36      1.89    -35.01      1.80
   98.0800      1.84      1.89    -35.53      1.80
   98.1000      1.68      1.89    -35.69      1.80
   98.1200      2.00      1.90    -35.38      1.80
   98.1400      1.96      1.90    -35.42      1.80
   98.1600      2.00      1.90    -35.38      1.80
   98.1800      1.48      1.90    -35.90      1.80
   98.2000      1.84      1.90    -35.54      1.80
   98.2200      1.48      1.90    -35.90      1.80
   98.2400      2.08      1.90    -35.30      1.80
   98.2600      1.88      1.90    -35.50      1.80
   98.2800      2.00      1.90    -35.38      1.80
   98.3000      1.68      1.90    -35.70      1.80
   98.3200      2.24      1.91    -35.15      1.80
   98.3400      1.56      1.91    -35.83      1.80
   98.3600      1.60      1.91    -35.79      1.80
   98.3800      2.36      1.91    -35.03      1.80
   98.4000      2.12      1.91    -35.27      1.80
   98.4200      2.28      1.91    -35.11      1.80
   98.4400      1.60      1.91    -35.79      1.80
   98.4600      2.16      1.91    -35.23      1.80
   98.4800      1.84      1.91    -35.55      1.80
   98.5000      1.64      1.91    -35.75      1.80
   98.5200      2.28      1.91    -35.11      1.80
   98.5400      1.68      1.91    -35.71      1.80
   98.5600      1.60      1.91    -35.79      1.80
   98.5800      2.24      1.91    -35.15      1.80
   98.6000      2.08      1.92    -35.32      1.80
   98.6200      2.12      1.92    -35.28      1.80
   98.6400      2.04      1.92    -35.36      1.80
   98.6600      1.88      1.92    -35.52      1.80
   98.6800      1.72      1.92    -35.68      1.80
   98.7000      2.04      1.92    -35.36      1.80
   98.7200      2.28      1.92    -35.12      1.80
   98.7400      1.92      1.92    -35.48      1.80
   98.7600      2.28      1.92    -35.12      1.80
   98.7800      1.80      1.93    -35.61      1.80
   98.8000      1.88      1.93    -35.53      1.80
   98.8200      2.12      1.93    -35.29      1.80
   98.8400      1.84      1.93    -35.57      1.80
   98.8600      1.80      1.93    -35.61      1.80
   98.8800      1.64      1.93    -35.77      1.80
   98.9000      1.36      1.94    -36.06      1.80
   98.9200      2.20      1.94    -35.22      1.80
   98.9400      1.88      1.94    -35.54      1.80
   98.9600      1.56      1.94    -35.86      1.80
   98.9800      1.64      1.94    -35.78      1.80
   99.0000      2.04      1.95    -35.39      1.80
   99.0200      1.84      1.95    -35.59      1.80
   99.0400      2.12      1.95    -35.31      1.80
   99.0600      2.04      1.95    -35.39      1.80
   99.0800      1.64      1.95    -35.79      1.80
   99.1000      2.04      1.96    -35.40      1.80
   99.1200      1.96      1.96    -35.48      1.80
   99.1400      1.92      1.96    -35.52      1.80
   99.1600      2.16      1.96    -35.28      1.80
   99.1800      2.08      1.97    -35.37      1.80
   99.2000      1.88      1.97    -35.57      1.80
   99.2200      1.68      1.97    -35.77      1.80
   99.2400      1.76      1.97    -35.69      1.80
   99.2600      2.04      1.98    -35.42      1.80
   99.2800      2.24      1.98    -35.22      1.80
   99.3000      1.68      1.98    -35.78      1.80
   99.3200      2.24      1.98    -35.22      1.80
   99.3400      2.12      1.99    -35.35      1.80
   99.3600      1.72      1.99    -35.75      1.80
   99.3800      2.20      1.99    -35.27      1.80
   99.4000      1.64      2.00    -35.84      1.80
   99.4200      1.96      2.00    -35.52      1.80
   99.4400      2.40      2.00    -35.08      1.80
   99.4600      2.12      2.01    -35.37      1.80
   99.4800      2.04      2.01    -35.45      1.80
   99.5000      2.08      2.01    -35.41      1.80
   99.5200      1.96      2.02    -35.54      1.80
   99.5400      1.88      2.02    -35.62      1.80
   99.5600      2.44      2.02    -35.06      1.80
   99.5800      2.00      2.03    -35.51      1.80
   99.6000      1.96      2.03    -35.55      1.80
   99.6200      1.84      2.04    -35.68      1.80
   99.6400      2.08      2.04    -35.44      1.80
   99.6600      1.76      2.04    -35.76      1.80
   99.6800      1.56      2.05    -35.97      1.80
   99.7000      1.76      2.05    -35.77      1.80
   99.7200      2.12      2.06    -35.42      1.80
   99.7400      1.40      2.06    -36.14      1.80
   99.7600      2.00      2.07    -35.55      1.80
   99.7800      1.64      2.07    -35.91      1.80
   99.8000      2.52      2.08    -35.04      1.80
   99.8200      2.48      2.08    -35.08      1.80
   99.8400      1.76      2.09    -35.81      1.80
   99.8600      2.00      2.10    -35.58      1.80
   99.8800      2.28      2.10    -35.30      1.80
   99.9000      1.92      2.11    -35.67      1.80
   99.9200      1.80      2.11    -35.79      1.80
   99.9400      1.80      2.12    -35.80      1.80
   99.9600      2.12      2.13    -35.49      1.80
   99.9800      2.08      2.14    -35.54      1.80
  100.0000      2.00      2.14    -35.62      1.80
  100.0200      2.16      2.15    -35.47      1.80
  100.0400      2.40      2.16    -35.24      1.80
  100.0600      1.68      2.17    -35.97      1.80
  100.0800      1.80      2.17    -35.85      1.80
  100.1000      2.48      2.18    -35.18      1.80
  100.1200      2.12      2.19    -35.55      1.80
  100.1400      2.28      2.20    -35.40      1.80
  100.1600      2.08      2.21    -35.61      1.80
  100.1800      1.28      2.22    -36.42      1.80
  100.2000      2.28      2.23    -35.43      1.80
  100.2200      1.84      2.24    -35.88      1.80
  100.2400      2.00      2.25    -35.73      1.80
  100.2600      1.52      2.27    -36.23      1.80
  100.2800      2.32      2.28    -35.44      1.80
  100.3000      2.52      2.29    -35.25      1.80
  100.3200      1.96      2.30    -35.82      1.80
  100.3400      2.24      2.32    -35.56      1.80
  100.3600      1.88      2.33    -35.93      1.80
  100.3800      2.60      2.35    -35.23      1.80
  100.4000      1.84      2.36    -36.00      1.80
  100.4200      2.84      2.38    -35.02      1.80
  100.4400      2.52      2.40    -35.36      1.80
  100.4600      2.12      2.42    -35.78      1.80
  100.4800      1.80      2.44    -36.12      1.80
  100.5000      2.84      2.46    -35.10      1.80
  100.5200      2.08      2.48    -35.88      1.80
  100.5400      2.36      2.50    -35.62      1.80
  100.5600      2.20      2.52    -35.80      1.80
  100.5800      2.88      2.55    -35.15      1.80
  100.6000      2.80      2.57    -35.25      1.81
  100.6200      2.44      2.60    -35.64      1.81
  100.6400      2.52      2.63    -35.59      1.81
  100.6600      2.52      2.66    -35.62      1.81
  100.6800      2.20      2.69    -35.97      1.81
  100.7000      2.56      2.73    -35.65      1.81
  100.7200      2.72      2.76    -35.52      1.81
  100.7400      1.88      2.80    -36.40      1.81
  100.7600      2.36      2.85    -35.97      1.81
  100.7800      2.68      2.89    -35.69      1.81
  100.8000      2.44      2.94    -35.98      1.81
  100.8200      2.64      2.99    -35.83      1.81
  100.8400      3.56      3.04    -34.96      1.81
  100.8600      3.48      3.10    -35.10      1.81
  100.8800      2.96      3.16    -35.68      1.81
  100.9000      3.16      3.23    -35.55      1.81
  100.9200      3.64      3.30    -35.14      1.81
  100.9400      2.64      3.38    -36.22      1.81
  100.9600      3.96      3.46    -34.98      1.81
  100.9800      3.80      3.56    -35.24      1.81
  101.0000      3.92      3.66    -35.22      1.81
  101.0200      3.48      3.77    -35.77      1.81
  101.0400      4.16      3.89    -35.21      1.81
  101.0600      4.00      4.02    -35.50      1.81
  101.0800      4.28      4.16    -35.36      1.81
  101.1000      4.40      4.32    -35.40      1.81
  101.1200      4.28      4.50    -35.70      1.81
  101.1400      3.88      4.70    -36.30      1.81
  101.1600      5.40      4.92    -35.00      1.81
  101.1800      5.04      5.16    -35.60      1.81
  101.2000      5.24      5.44    -35.68      1.81
  101.2200      5.08      5.76    -36.16      1.81
  101.2400      4.76      6.12    -36.84      1.81
  101.2600      5.84      6.53    -36.17      1.81
  101.2800      6.40      7.00    -36.08      1.81
  101.3000      7.40      7.56    -35.64      1.81
  101.3200      7.88      8.21    -35.81      1.81
  101.3400      9.40      8.99    -35.07      1.81
  101.3600      7.48      9.95    -37.95      1.81
  101.3800     10.76     11.15    -35.87      1.81
  101.4000     10.72     12.70    -37.46      1.81
  101.4200     12.60     14.75    -37.63      1.81
  101.4400     14.04     17.51    -38.95      1.81
  101.4600     15.76     21.24    -40.96      1.81
  101.4800     18.36     26.26    -43.38      1.81
  101.5000     25.80     32.87    -42.55      1.81
  101.5200     36.20     41.32    -40.60      1.81
  101.5400     53.76     51.73    -33.45      1.81
  101.5600     70.64     63.85    -28.69      1.81
  101.5800     92.72     76.88    -19.64      1.81
  101.6000    102.56     89.06    -21.98      1.81
  101.6200    109.12     97.60    -23.96      1.81
  101.6400    103.32     99.79    -31.95      1.81
  101.6600     99.96     94.87    -30.39      1.81
  101.6800     80.88     84.78    -39.38      1.81
  101.7000     66.68     72.50    -41.30      1.81
  101.7200     53.48     60.42    -42.42      1.81
  101.7400     45.16     49.87    -40.19      1.81
  101.7600     37.84     41.39    -39.03      1.81
  101.7800     35.36     35.15    -35.27      1.81
  101.8000     29.12     31.07    -37.43      1.81
  101.8200     28.56     29.01    -35.93      1.81
  101.8400     26.52     28.82    -37.78      1.81
  101.8600     27.36     30.35    -38.47      1.81
  101.8800     32.16     33.44    -36.76      1.81
  101.9000     40.16     37.86    -33.18      1.81
  101.9200     47.36     43.20    -31.32      1.81
  101.9400     53.08     48.65    -31.05      1.81
  101.9600     60.24     52.93    -28.17      1.81
  101.9800     58.72     54.51    -31.27      1.81
  102.0000     54.88     52.57    -33.17      1.81
  102.0200     48.00     47.65    -35.13      1.81
  102.0400     41.20     41.17    -35.45      1.81
  102.0600     31.76     34.44    -38.16      1.81
  102.0800     29.56     28.28    -34.20      1.81
  102.1000     24.24     23.03    -34.27      1.81
  102.1200     19.52     18.78    -34.74      1.81
  102.1400     17.24     15.45    -33.69      1.81
  102.1600     15.60     12.92    -32.80      1.81
  102.1800     12.40     11.01    -34.09      1.81
  102.2000     11.28      9.59    -33.79      1.81
  102.2200     10.64      8.51    -33.35      1.81
  102.2400      9.32      7.69    -33.85      1.81
  102.2600      7.84      7.03    -34.67      1.81
  102.2800      7.88      6.50    -34.10      1.81
  102.3000      6.96      6.05    -34.57      1.81
  102.3200      5.64      5.68    -35.52      1.81
  102.3400      5.56      5.36    -35.28      1.81
  102.3600      4.60      5.08    -35.96      1.81
  102.3800      5.20      4.83    -35.11      1.81
  102.4000      3.36      4.62    -36.74      1.81
  102.4200      4.76      4.42    -35.14      1.81
  102.4400      4.36      4.25    -35.37      1.81
  102.4600      4.60      4.10    -34.98      1.81
  102.4800      3.52      3.96    -35.92      1.81
  102.5000      4.24      3.84    -35.08      1.81
  102.5200      4.28      3.73    -34.93      1.81
  102.5400      3.60      3.62    -35.50      1.81
  102.5600      3.52      3.53    -35.49      1.81
  102.5800      4.04      3.45    -34.89      1.81
  102.6000      3.80      3.37    -35.05      1.81
  102.6200      3.16      3.30    -35.62      1.81
  102.6400      2.88      3.23    -35.83      1.81
  102.6600      2.88      3.17    -35.77      1.81
  102.6800      3.60      3.11    -34.99      1.81
  102.7000      3.44      3.06    -35.10      1.81
  102.7200      3.28      3.01    -35.21      1.81
  102.7400      3.60      2.97    -34.85      1.81
  102.7600      2.88      2.93    -35.53      1.81
  102.7800      3.08      2.89    -35.29      1.81
  102.8000      2.96      2.85    -35.37      1.81
  102.8200      2.52      2.82    -35.78      1.81
  102.8400      3.48      2.79    -34.79      1.81
  102.8600      2.88      2.76    -35.36      1.81
  102.8800      2.68      2.73    -35.53      1.81
  102.9000      3.20      2.70    -34.98      1.81
  102.9200      2.76      2.68    -35.40      1.81
  102.9400      2.68      2.66    -35.46      1.81
  102.9600      2.88      2.64    -35.24      1.81
  102.9800      2.48      2.62    -35.62      1.81
  103.0000      2.92      2.60    -35.16      1.81
  103.0200      2.76      2.58    -35.30      1.81
  103.0400      2.56      2.56    -35.48      1.81
  103.0600      2.60      2.55    -35.43      1.81
  103.0800      3.56      2.53    -34.45      1.81
  103.1000      2.64      2.52    -35.36      1.81
  103.1200      2.28      2.51    -35.71      1.81
  103.1400      3.12      2.49    -34.85      1.81
  103.1600      2.52      2.48    -35.44      1.81
  103.1800      2.76      2.47    -35.19      1.81
  103.2000      2.24      2.46    -35.70      1.81
  103.2200      2.08      2.45    -35.85      1.81
  103.2400      2.84      2.44    -35.08      1.82
  103.2600      2.76      2.44    -35.16      1.82
  103.2800      2.08      2.43    -35.83      1.82
  103.3000      2.20      2.42    -35.70      1.82
  103.3200      3.16      2.41    -34.73      1.82
  103.3400      2.84      2.41    -35.05      1.82
  103.3600      2.56      2.40    -35.32      1.82
  103.3800      2.92      2.40    -34.96      1.82
  103.4000      2.92      2.39    -34.95      1.82
  103.4200      1.84      2.39    -36.03      1.82
  103.4400      2.24      2.39    -35.63      1.82
  103.4600      2.08      2.38    -35.78      1.82
  103.4800      2.04      2.38    -35.82      1.82
  103.5000      2.48      2.38    -35.38      1.82
  103.5200      2.12      2.38    -35.74      1.82
  103.5400      3.04      2.38    -34.82      1.82
  103.5600      2.00      2.37    -35.85      1.82
  103.5800      2.48      2.37    -35.37      1.82
  103.6000      2.52      2.37    -35.33      1.82
  103.6200      2.32      2.37    -35.53      1.82
  103.6400      2.12      2.37    -35.73      1.82
  103.6600      2.32      2.38    -35.54      1.82
  103.6800      2.68      2.38    -35.18      1.82
  103.7000      2.68      2.38    -35.18      1.82
  103.7200      3.00      2.38    -34.86      1.82
  103.7400      2.76      2.38    -35.10      1.82
  103.7600      2.40      2.39    -35.47      1.82
  103.7800      2.28      2.39    -35.59      1.82
  103.8000      2.64      2.39    -35.23      1.82
  103.8200      2.76      2.40    -35.12      1.82
  103.8400      2.32      2.40    -35.56      1.82
  103.8600      2.28      2.41    -35.61      1.82
  103.8800      2.40      2.41    -35.49      1.82
  103.9000      3.16      2.42    -34.74      1.82
  103.9200      2.60      2.43    -35.31      1.82
  103.9400      3.20      2.43    -34.71      1.82
  103.9600      2.88      2.44    -35.04      1.82
  103.9800      2.56      2.45    -35.37      1.82
  104.0000      2.72      2.46    -35.22      1.82
  104.0200      2.48      2.47    -35.47      1.82
  104.0400      2.64      2.48    -35.32      1.82
  104.0600      2.96      2.49    -35.01      1.82
  104.0800      2.52      2.50    -35.46      1.82
  104.1000      3.20      2.51    -34.79      1.82
  104.1200      2.44      2.53    -35.57      1.82
  104.1400      3.16      2.54    -34.86      1.82
  104.1600      2.32      2.55    -35.71      1.82
  104.1800      2.44      2.57    -35.61      1.82
  104.2000      3.08      2.59    -34.99      1.82
  104.2200      2.76      2.60    -35.32      1.82
  104.2400      2.56      2.62    -35.54      1.82
  104.2600      2.88      2.64    -35.24      1.82
  104.2800      2.68      2.66    -35.46      1.82
  104.3000      3.28      2.68    -34.88      1.82
  104.3200      2.60      2.71    -35.59      1.82
  104.3400      3.00      2.73    -35.21      1.82
  104.3600      3.12      2.76    -35.12      1.82
  104.3800      3.56      2.79    -34.71      1.82
  104.4000      2.84      2.82    -35.46      1.82
  104.4200      2.96      2.85    -35.37      1.82
  104.4400      3.32      2.88    -35.04      1.82
  104.4600      3.40      2.92    -35.00      1.82
  104.4800      3.44      2.96    -35.00      1.82
  104.5000      3.64      3.00    -34.84      1.82
  104.5200      3.60      3.04    -34.92      1.82
  104.5400      3.40      3.09    -35.17      1.82
  104.5600      3.16      3.14    -35.46      1.82
  104.5800      3.28      3.19    -35.39      1.82
  104.6000      4.00      3.25    -34.73      1.82
  104.6200      3.88      3.31    -34.91      1.82
  104.6400      4.64      3.38    -34.22      1.82
  104.6600      4.28      3.45    -34.65      1.82
  104.6800      4.48      3.53    -34.53      1.82
  104.7000      4.24      3.62    -34.86      1.82
  104.7200      5.28      3.71    -33.91      1.82
  104.7400      5.00      3.81    -34.29      1.82
  104.7600      4.76      3.92    -34.64      1.82
  104.7800      5.24      4.04    -34.28      1.82
  104.8000      5.24      4.17    -34.41      1.82
  104.8200      4.80      4.32    -35.00      1.82
  104.8400      5.96      4.48    -34.00      1.82
  104.8600      5.92      4.66    -34.22      1.82
  104.8800      5.28      4.86    -35.06      1.82
  104.9000      5.56      5.08    -35.00      1.82
  104.9200      6.16      5.33    -34.65      1.82
  104.9400      6.60      5.60    -34.48      1.82
  104.9600      7.80      5.92    -33.60      1.82
  104.9800      8.08      6.28    -33.68      1.82
  105.0000      8.12      6.68    -34.04      1.82
  105.0200      8.36      7.15    -34.27      1.82
  105.0400      9.72      7.70    -33.46      1.82
  105.0600      9.52      8.33    -34.29      1.82
  105.0800     11.08      9.09    -33.49      1.82
  105.1000     12.72     10.00    -32.76      1.82
  105.1200     12.80     11.12    -33.80      1.82
  105.1400     14.00     12.54    -34.02      1.82
  105.1600     17.92     14.40    -31.96      1.82
  105.1800     19.88     16.86    -32.46      1.82
  105.2000     20.84     20.20    -34.84      1.82
  105.2200     24.28     24.71    -35.91      1.82
  105.2400     31.32     30.74    -34.90      1.82
  105.2600     41.88     38.63    -32.23      1.82
  105.2800     52.44     48.60    -31.64      1.82
  105.3000     68.84     60.68    -27.32      1.82
  105.3200     80.68     74.44    -29.24      1.82
  105.3400     83.52     88.69    -40.65      1.82
  105.3600     87.28    101.09    -49.29      1.82
  105.3800     88.72    108.40    -55.16      1.82
  105.4000     85.56    108.11    -58.03      1.82
  105.4200     81.76    100.44    -54.16      1.82
  105.4400     78.80     88.13    -44.81      1.82
  105.4600     70.92     74.37    -38.93      1.82
  105.4800     62.52     61.39    -34.35      1.82
  105.5000     53.88     50.29    -31.89      1.82
  105.5200     48.08     41.47    -28.87      1.82
  105.5400     41.36     34.95    -29.07      1.82
  105.5600     36.40     30.60    -29.68      1.82
  105.5800     33.96     28.21    -29.73      1.82
  105.6000     32.76     27.61    -30.33      1.82
  105.6200     33.08     28.66    -31.06      1.82
  105.6400     36.72     31.29    -30.05      1.82
  105.6600     38.40     35.37    -32.45      1.82
  105.6800     43.80     40.73    -32.41      1.82
  105.7000     48.64     46.90    -33.74      1.82
  105.7200     49.68     53.01    -38.81      1.82
  105.7400     50.56     57.58    -42.50      1.82
  105.7600     51.28     59.00    -43.20      1.82
  105.7800     48.96     56.52    -43.04      1.82
  105.8000     46.92     50.91    -39.47      1.82
  105.8200     44.88     43.75    -34.35      1.82
  105.8400     38.36     36.45    -33.57      1.82
  105.8600     36.48     29.82    -28.82      1.82
  105.8800     31.80     24.22    -27.90      1.83
  105.9000     25.12     19.70    -30.06      1.83
  105.9200     23.24     16.18    -28.42      1.83
  105.9400     18.80     13.50    -30.18      1.83
  105.9600     17.32     11.50    -29.66      1.83
  105.9800     13.40     10.00    -32.08      1.83
  106.0000     13.12      8.87    -31.23      1.83
  106.0200     11.80      8.00    -31.68      1.83
  106.0400     10.92      7.31    -31.87      1.83
  106.0600      9.28      6.74    -32.94      1.83
  106.0800      8.56      6.27    -33.19      1.83
  106.1000      7.16      5.88    -34.20      1.83
  106.1200      7.48      5.53    -33.53      1.83
  106.1400      7.36      5.24    -33.36      1.83
  106.1600      6.72      4.97    -33.73      1.83
  106.1800      5.60      4.74    -34.62      1.83
  106.2000      6.52      4.54    -33.50      1.83
  106.2200      5.44      4.36    -34.40      1.83
  106.2400      5.20      4.19    -34.47      1.83
  106.2600      4.92      4.05    -34.61      1.83
  106.2800      4.44      3.91    -34.95      1.83
  106.3000      5.00      3.79    -34.27      1.83
  106.3200      4.88      3.68    -34.28      1.83
  106.3400      4.04      3.58    -35.02      1.83
  106.3600      4.68      3.49    -34.29      1.83
  106.3800      4.48      3.40    -34.40      1.83
  106.4000      4.12      3.33    -34.69      1.83
  106.4200      4.56      3.25    -34.17      1.83
  106.4400      4.64      3.19    -34.03      1.83
  106.4600      4.00      3.12    -34.60      1.83
  106.4800      3.20      3.07    -35.35      1.83
  106.5000      4.04      3.01    -34.45      1.83
  106.5200      3.60      2.96    -34.84      1.83
  106.5400      3.52      2.92    -34.88      1.83
  106.5600      2.24      2.87    -36.11      1.83
  106.5800      3.24      2.83    -35.07      1.83
  106.6000      3.44      2.79    -34.83      1.83
  106.6200      2.88      2.76    -35.36      1.83
  106.6400      3.88      2.72    -34.32      1.83
  106.6600      3.40      2.69    -34.77      1.83
  106.6800      3.00      2.66    -35.14      1.83
  106.7000      3.68      2.63    -34.43      1.83
  106.7200      3.16      2.61    -34.93      1.83
  106.7400      3.36      2.58    -34.70      1.83
  106.7600      3.04      2.55    -34.99      1.83
  106.7800      2.84      2.53    -35.17      1.83
  106.8000      3.08      2.51    -34.91      1.83
  106.8200      2.40      2.49    -35.57      1.83
  106.8400      3.00      2.47    -34.95      1.83
  106.8600      2.52      2.45    -35.41      1.83
  106.8800      2.96      2.43    -34.95      1.83
  106.9000      2.64      2.41    -35.25      1.83
  106.9200      2.88      2.40    -35.00      1.83
  106.9400      3.28      2.38    -34.58      1.83
  106.9600      3.04      2.37    -34.81      1.83
  106.9800      2.92      2.35    -34.91      1.83
  107.0000      3.00      2.34    -34.82      1.83
  107.0200      3.52      2.33    -34.29      1.83
  107.0400      3.00      2.31    -34.79      1.83
  107.0600      1.96      2.30    -35.82      1.83
  107.0800      2.08      2.29    -35.69      1.83
  107.1000      2.08      2.28    -35.68      1.83
  107.1200      2.56      2.27    -35.19      1.83
  107.1400      3.00      2.26    -34.74      1.83
  107.1600      2.40      2.25    -35.33      1.83
  107.1800      3.04      2.24    -34.68      1.83
  107.2000      2.44      2.23    -35.27      1.83
  107.2200      2.84      2.22    -34.86      1.83
  107.2400      1.96      2.21    -35.73      1.83
  107.2600      2.80      2.20    -34.88      1.83
  107.2800      2.68      2.19    -34.99      1.83
  107.3000      2.32      2.19    -35.35      1.83
  107.3200      1.80      2.18    -35.86      1.83
  107.3400      2.72      2.17    -34.93      1.83
  107.3600      2.80      2.16    -34.84      1.83
  107.3800      2.32      2.16    -35.32      1.83
  107.4000      2.88      2.15    -34.75      1.83
  107.4200      3.12      2.14    -34.50      1.83
  107.4400      2.68      2.14    -34.94      1.83
  107.4600      2.20      2.13    -35.41      1.83
  107.4800      2.56      2.13    -35.05      1.83
  107.5000      2.40      2.12    -35.20      1.83
  107.5200      2.44      2.12    -35.16      1.83
  107.5400      2.28      2.11    -35.31      1.83
  107.5600      2.12      2.10    -35.46      1.83
  107.5800      2.52      2.10    -35.06      1.83
  107.6000      2.84      2.10    -34.74      1.83
  107.6200      2.44      2.09    -35.13      1.83
  107.6400      2.60      2.09    -34.97      1.83
  107.6600      2.08      2.08    -35.48      1.83
  107.6800      2.48      2.08    -35.08      1.83
  107.7000      2.32      2.07    -35.23      1.83
  107.7200      2.44      2.07    -35.11      1.83
  107.7400      2.68      2.07    -34.87      1.83
  107.7600      2.76      2.06    -34.78      1.83
  107.7800      2.76      2.06    -34.78      1.83
  107.8000      2.68      2.05    -34.85      1.83
  107.8200      2.16      2.05    -35.37      1.83
  107.8400      2.36      2.05    -35.17      1.83
  107.8600      2.44      2.04    -35.08      1.83
  107.8800      2.60      2.04    -34.92      1.83
  107.9000      2.48      2.04    -35.04      1.83
  107.9200      3.24      2.03    -34.27      1.83
  107.9400      2.36      2.03    -35.15      1.83
  107.9600      2.44      2.03    -35.07      1.83
  107.9800      2.24      2.03    -35.27      1.83
  108.0000      1.96      2.02    -35.54      1.83
  108.0200      2.56      2.02    -34.94      1.83
  108.0400      2.20      2.02    -35.30      1.83
  108.0600      2.08      2.01    -35.41      1.83
  108.0800      2.72      2.01    -34.77      1.83
  108.1000      2.16      2.01    -35.33      1.83
  108.1200      2.60      2.01    -34.89      1.83
  108.1400      2.72      2.00    -34.76      1.83
  108.1600      1.84      2.00    -35.64      1.83
  108.1800      1.92      2.00    -35.56      1.83
  108.2000      2.12      2.00    -35.36      1.83
  108.2200      2.44      2.00    -35.04      1.83
  108.2400      2.68      1.99    -34.79      1.83
  108.2600      3.00      1.99    -34.47      1.83
  108.2800      2.92      1.99    -34.55      1.83
  108.3000      2.12      1.99    -35.35      1.83
  108.3200      2.56      1.99    -34.91      1.83
  108.3400      2.12      1.98    -35.34      1.83
  108.3600      2.24      1.98    -35.22      1.83
  108.3800      2.40      1.98    -35.06      1.83
  108.4000      2.60      1.98    -34.86      1.83
  108.4200      2.12      1.98    -35.34      1.83
  108.4400      2.36      1.97    -35.09      1.83
  108.4600      2.16      1.97    -35.29      1.83
  108.4800      2.56      1.97    -34.89      1.83
  108.5000      2.12      1.97    -35.33      1.83
  108.5200      2.64      1.97    -34.81      1.84
  108.5400      2.52      1.97    -34.93      1.84
  108.5600      2.08      1.96    -35.36      1.84
  108.5800      1.92      1.96    -35.52      1.84
  108.6000      2.48      1.96    -34.96      1.84
  108.6200      2.60      1.96    -34.84      1.84
  108.6400      2.12      1.96    -35.32      1.84
  108.6600      2.80      1.96    -34.64      1.84
  108.6800      2.44      1.96    -35.00      1.84
  108.7000      2.12      1.96    -35.32      1.84
  108.7200      1.68      1.95    -35.75      1.84
  108.7400      2.60      1.95    -34.83      1.84
  108.7600      2.44      1.95    -34.99      1.84
  108.7800      2.08      1.95    -35.35      1.84
  108.8000      1.72      1.95    -35.71      1.84
  108.8200      2.40      1.95    -35.03      1.84
  108.8400      2.32      1.95    -35.11      1.84
  108.8600      1.96      1.95    -35.47      1.84
  108.8800      2.64      1.94    -34.78      1.84
  108.9000      2.44      1.94    -34.98      1.84
  108.9200      2.20      1.94    -35.22      1.84
  108.9400      2.40      1.94    -35.02      1.84
  108.9600      2.52      1.94    -34.90      1.84
  108.9800      2.20      1.94    -35.22      1.84
  109.0000      2.08      1.94    -35.34      1.84
  109.0200      2.20      1.94    -35.22      1.84
  109.0400      1.92      1.94    -35.50      1.84
  109.0600      2.28      1.94    -35.14      1.84
  109.0800      2.00      1.93    -35.41      1.84
  109.1000      2.28      1.93    -35.13      1.84
  109.1200      2.04      1.93    -35.37      1.84
  109.1400      2.96      1.93    -34.45      1.84
  109.1600      2.40      1.93    -35.01      1.84
  109.1800      2.04      1.93    -35.37      1.84
  109.2000      2.04      1.93    -35.37      1.84
  109.2200      2.24      1.93    -35.17      1.84
  109.2400      2.08      1.93    -35.33      1.84
  109.2600      1.80      1.93    -35.61      1.84
  109.2800      2.92      1.93    -34.49      1.84
  109.3000      2.64      1.93    -34.77      1.84
  109.3200      2.20      1.92    -35.20      1.84
  109.3400      1.64      1.91    -35.75      1.84
  109.3600      1.80      1.91    -35.59      1.84
  109.3800      2.56      1.91    -34.83      1.84
  109.4000      2.52      1.91    -34.87      1.84
  109.4200      2.60      1.91    -34.79      1.84
  109.4400      2.52      1.91    -34.87      1.84
  109.4600      1.84      1.91    -35.55      1.84
  109.4800      1.76      1.91    -35.63      1.84
  109.5000      1.84      1.91    -35.55      1.84
  109.5200      2.20      1.91    -35.19      1.84
  109.5400      2.00      1.91    -35.39      1.84
  109.5600      2.52      1.91    -34.87      1.84
  109.5800      1.76      1.91    -35.63      1.84
  109.6000      2.96      1.91    -34.43      1.84
  109.6200      2.00      1.90    -35.38      1.84
  109.6400      2.52      1.90    -34.86      1.84
  109.6600      1.80      1.90    -35.58      1.84
  109.6800      2.68      1.90    -34.70      1.84
  109.7000      2.12      1.90    -35.26      1.84
  109.7200      2.36      1.90    -35.02      1.84
  109.7400      2.48      1.90    -34.90      1.84
  109.7600      2.04      1.90    -35.34      1.84
  109.7800      2.24      1.90    -35.14      1.84
  109.8000      2.16      1.90    -35.22      1.84
  109.8200      2.56      1.89    -34.81      1.84
  109.8400      1.72      1.89    -35.65      1.84
  109.8600      2.08      1.89    -35.29      1.84
  109.8800      1.88      1.89    -35.49      1.84
  109.9000      2.32      1.89    -35.05      1.84
  109.9200      2.08      1.89    -35.29      1.84
  109.9400      1.84      1.89    -35.53      1.84
  109.9600      2.12      1.89    -35.25      1.84
  109.9800      2.44      1.89    -34.93      1.84
  110.0000      1.96      1.89    -35.41      1.84
  110.0200      2.76      1.89    -34.61      1.84
  110.0400      2.28      1.89    -35.09      1.84
  110.0600      1.88      1.89    -35.49      1.84
  110.0800      1.84      1.89    -35.53      1.84
  110.1000      2.16      1.89    -35.21      1.84
  110.1200      2.08      1.89    -35.29      1.84
  110.1400      1.96      1.89    -35.41      1.84
  110.1600      2.24      1.89    -35.13      1.84
  110.1800      2.16      1.89    -35.21      1.84
  110.2000      2.64      1.89    -34.73      1.84
  110.2200      2.44      1.89    -34.93      1.84
  110.2400      2.44      1.89    -34.93      1.84
  110.2600      1.80      1.89    -35.57      1.84
  110.2800      2.12      1.89    -35.25      1.84
  110.3000      2.00      1.89    -35.37      1.84
  110.3200      1.52      1.89    -35.85      1.84
  110.3400      2.04      1.89    -35.33      1.84
  110.3600      1.68      1.89    -35.69      1.84
  110.3800      2.00      1.88    -35.36      1.84
  110.4000      1.80      1.88    -35.56      1.84
  110.4200      2.48      1.88    -34.88      1.84
  110.4400      2.24      1.88    -35.12      1.84
  110.4600      2.12      1.88    -35.24      1.84
  110.4800      2.04      1.88    -35.32      1.84
  110.5000      1.68      1.88    -35.68      1.84
  110.5200      1.96      1.88    -35.40      1.84
  110.5400      1.84      1.88    -35.52      1.84
  110.5600      2.44      1.88    -34.92      1.84
  110.5800      1.68      1.88    -35.68      1.84
  110.6000      1.56      1.88    -35.80      1.84
  110.6200      1.76      1.88    -35.60      1.84
  110.6400      1.92      1.88    -35.44      1.84
  110.6600      1.48      1.88    -35.88      1.84
  110.6800      2.44      1.88    -34.92      1.84
  110.7000      2.00      1.88    -35.36      1.84
  110.7200      2.32      1.88    -35.04      1.84
  110.7400      2.56      1.88    -34.80      1.84
  110.7600      2.12      1.88    -35.24      1.84
  110.7800      2.12      1.88    -35.24      1.84
  110.8000      1.76      1.88    -35.60      1.84
  110.8200      1.80      1.88    -35.56      1.84
  110.8400      1.92      1.88    -35.44      1.84
  110.8600      2.08      1.88    -35.28      1.84
  110.8800      2.08      1.88    -35.28      1.84
  110.9000      1.84      1.88    -35.52      1.84
  110.9200      2.20      1.88    -35.16      1.84
  110.9400      1.48      1.88    -35.88      1.84
  110.9600      1.72      1.88    -35.64      1.84
  110.9800      1.80      1.88    -35.56      1.84
  111.0000      2.32      1.88    -35.04      1.84
  111.0200      2.32      1.88    -35.04      1.84
  111.0400      2.24      1.88    -35.12      1.84
  111.0600      2.08      1.88    -35.28      1.84
  111.0800      1.88      1.88    -35.48      1.84
  111.1000      2.20      1.88    -35.16      1.84
  111.1200      2.04      1.88    -35.32      1.84
  111.1400      2.36      1.88    -35.00      1.84
  111.1600      1.76      1.88    -35.60      1.85
  111.1800      1.56      1.88    -35.80      1.85
  111.2000      2.00      1.88    -35.36      1.85
  111.2200      2.64      1.88    -34.72      1.85
  111.2400      2.00      1.88    -35.36      1.85
  111.2600      1.92      1.88    -35.44      1.85
  111.2800      1.92      1.88    -35.44      1.85
  111.3000      2.16      1.88    -35.20      1.85
  111.3200      2.16      1.88    -35.20      1.85
  111.3400      1.68      1.88    -35.68      1.85
  111.3600      1.52      1.88    -35.84      1.85
  111.3800      1.60      1.88    -35.76      1.85
  111.4000      2.28      1.88    -35.08      1.85
  111.4200      2.16      1.88    -35.20      1.85
  111.4400      2.60      1.87    -34.75      1.85
  111.4600      1.72      1.87    -35.63      1.85
  111.4800      2.40      1.87    -34.95      1.85
  111.5000      2.00      1.87    -35.35      1.85
  111.5200      1.88      1.87    -35.47      1.85
  111.5400      1.88      1.87    -35.47      1.85
  111.5600      2.08      1.87    -35.27      1.85
  111.5800      1.96      1.87    -35.39      1.85
  111.6000      1.84      1.87    -35.51      1.85
  111.6200      2.28      1.87    -35.07      1.85
  111.6400      1.64      1.87    -35.71      1.85
  111.6600      2.12      1.87    -35.23      1.85
  111.6800      2.08      1.87    -35.27      1.85
  111.7000      2.36      1.87    -34.99      1.85
  111.7200      1.60      1.87    -35.75      1.85
  111.7400      2.28      1.87    -35.07      1.85
  111.7600      1.92      1.87    -35.43      1.85
  111.7800      1.88      1.87    -35.47      1.85
  111.8000      1.88      1.87    -35.47      1.85
  111.8200      2.08      1.87    -35.27      1.85
  111.8400      1.56      1.87    -35.79      1.85
  111.8600      1.96      1.87    -35.39      1.85
  111.8800      2.08      1.87    -35.27      1.85
  111.9000      2.28      1.87    -35.07      1.85
  111.9200      2.00      1.87    -35.35      1.85
  111.9400      2.08      1.87    -35.27      1.85
  111.9600      1.76      1.87    -35.59      1.85
  111.9800      1.88      1.87    -35.47      1.85
  112.0000      1.40      1.87    -35.95      1.85
  112.0200      1.88      1.87    -35.47      1.85
  112.0400      2.16      1.87    -35.19      1.85
  112.0600      2.12      1.87    -35.23      1.85
  112.0800      1.80      1.87    -35.55      1.85
  112.1000      1.60      1.87    -35.75      1.85
  112.1200      2.16      1.87    -35.19      1.85
  112.1400      1.68      1.87    -35.67      1.85
  112.1600      1.68      1.87    -35.67      1.85
  112.1800      2.08      1.87    -35.27      1.85
  112.2000      2.32      1.87    -35.03      1.85
  112.2200      2.60      1.87    -34.75      1.85
  112.2400      2.56      1.87    -34.79      1.85
  112.2600      1.92      1.87    -35.43      1.85
  112.2800      1.84      1.87    -35.51      1.85
  112.3000      2.16      1.87    -35.19      1.85
  112.3200      1.56      1.87    -35.79      1.85
  112.3400      1.96      1.87    -35.39      1.85
  112.3600      1.88      1.87    -35.47      1.85
  112.3800      1.68      1.87    -35.67      1.85
  112.4000      1.88      1.87    -35.47      1.85
  112.4200      2.04      1.87    -35.31      1.85
  112.4400      1.84      1.87    -35.51      1.85
  112.4600      2.36      1.87    -34.99      1.85
  112.4800      2.12      1.87    -35.23      1.85
  112.5000      1.76      1.87    -35.59      1.85
  112.5200      1.84      1.87    -35.51      1.85
  112.5400      2.12      1.87    -35.23      1.85
  112.5600      2.08      1.87    -35.27      1.85
  112.5800      2.40      1.87    -34.95      1.85
  112.6000      1.72      1.87    -35.63      1.85
  112.6200      1.64      1.87    -35.71      1.85
  112.6400      1.68      1.87    -35.67      1.85
  112.6600      1.72      1.87    -35.63      1.85
  112.6800      2.24      1.87    -35.11      1.85
  112.7000      2.16      1.87    -35.19      1.85
  112.7200      1.64      1.87    -35.71      1.85
  112.7400      2.24      1.87    -35.11      1.85
  112.7600      1.96      1.87    -35.39      1.85
  112.7800      2.00      1.87    -35.35      1.85
  112.8000      1.48      1.87    -35.87      1.85
  112.8200      1.48      1.87    -35.87      1.85
  112.8400      1.44      1.87    -35.91      1.85
  112.8600      1.64      1.87    -35.71      1.85
  112.8800      1.92      1.87    -35.43      1.85
  112.9000      2.20      1.87    -35.15      1.85
  112.9200      2.00      1.87    -35.35      1.85
  112.9400      2.12      1.87    -35.23      1.85
  112.9600      2.04      1.87    -35.31      1.85
  112.9800      1.88      1.87    -35.47      1.85
  113.0000      2.16      1.87    -35.19      1.85
  113.0200      2.04      1.87    -35.31      1.85
  113.0400      1.80      1.87    -35.55      1.85
  113.0600      1.48      1.87    -35.87      1.85
  113.0800      2.12      1.87    -35.23      1.85
  113.1000      1.44      1.86    -35.90      1.85
  113.1200      2.20      1.86    -35.14      1.85
  113.1400      1.84      1.86    -35.50      1.85
  113.1600      2.12      1.86    -35.22      1.85
  113.1800      2.16      1.86    -35.18      1.85
  113.2000      2.28      1.86    -35.06      1.85
  113.2200      1.48      1.86    -35.86      1.85
  113.2400      1.96      1.86    -35.38      1.85
  113.2600      1.64      1.86    -35.70      1.85
  113.2800      2.28      1.86    -35.06      1.85
  113.3000      1.80      1.86    -35.54      1.85
  113.3200      2.32      1.86    -35.02      1.85
  113.3400      2.52      1.86    -34.82      1.85
  113.3600      2.24      1.86    -35.10      1.85
  113.3800      1.64      1.86    -35.70      1.85
  113.4000      1.96      1.86    -35.38      1.85
  113.4200      2.40      1.86    -34.94      1.85
  113.4400      2.16      1.86    -35.18      1.85
  113.4600      2.12      1.85    -35.21      1.85
  113.4800      1.84      1.85    -35.49      1.85
  113.5000      2.08      1.85    -35.25      1.85
  113.5200      2.00      1.85    -35.33      1.85
  113.5400      1.80      1.85    -35.53      1.85
  113.5600      2.12      1.85    -35.21      1.85
  113.5800      1.84      1.85    -35.49      1.85
  113.6000      1.72      1.85    -35.61      1.85
  113.6200      1.76      1.85    -35.57      1.85
  113.6400      2.32      1.85    -35.01      1.85
  113.6600      2.12      1.85    -35.21      1.85
  113.6800      1.92      1.85    -35.41      1.85
  113.7000      1.52      1.85    -35.81      1.85
  113.7200      2.36      1.85    -34.97      1.85
  113.7400      1.92      1.85    -35.41      1.85
  113.7600      2.00      1.85    -35.33      1.85
  113.7800      2.28      1.85    -35.05      1.85
  113.8000      2.08      1.86    -35.26      1.86
  113.8200      1.84      1.86    -35.50      1.86
  113.8400      2.28      1.86    -35.06      1.86
  113.8600      1.80      1.86    -35.54      1.86
  113.8800      1.80      1.86    -35.54      1.86
  113.9000      2.20      1.86    -35.14      1.86
  113.9200      1.32      1.86    -36.02      1.86
  113.9400      1.92      1.86    -35.42      1.86
  113.9600      1.84      1.86    -35.50      1.86
  113.9800      1.92      1.86    -35.42      1.86
  114.0000      1.76      1.86    -35.58      1.86
  114.0200      2.08      1.86    -35.26      1.86
  114.0400      2.28      1.86    -35.06      1.86
  114.0600      2.08      1.86    -35.26      1.86
  114.0800      1.44      1.86    -35.90      1.86
  114.1000      1.92      1.86    -35.42      1.86
  114.1200      1.64      1.86    -35.70      1.86
  114.1400      2.12      1.86    -35.22      1.86
  114.1600      2.12      1.86    -35.22      1.86
  114.1800      1.88      1.86    -35.46      1.86
  114.2000      1.56      1.86    -35.78      1.86
  114.2200      1.80      1.86    -35.54      1.86
  114.2400      1.84      1.86    -35.50      1.86
  114.2600      2.20      1.86    -35.14      1.86
  114.2800      2.48      1.86    -34.86      1.86
  114.3000      2.00      1.86    -35.34      1.86
  114.3200      2.16      1.86    -35.18      1.86
  114.3400      1.92      1.86    -35.42      1.86
  114.3600      1.56      1.86    -35.78      1.86
  114.3800      2.24      1.86    -35.10      1.86
  114.4000      2.04      1.86    -35.30      1.86
  114.4200      1.72      1.86    -35.62      1.86
  114.4400      2.20      1.86    -35.14      1.86
  114.4600      2.32      1.86    -35.02      1.86
  114.4800      1.88      1.86    -35.46      1.86
  114.5000      2.08      1.86    -35.26      1.86
  114.5200      1.96      1.86    -35.38      1.86
  114.5400      2.08      1.86    -35.26      1.86
  114.5600      1.64      1.86    -35.70      1.86
  114.5800      1.80      1.86    -35.54      1.86
  114.6000      1.88      1.86    -35.46      1.86
  114.6200      2.12      1.86    -35.22      1.86
  114.6400      2.04      1.86    -35.30      1.86
  114.6600      1.88      1.86    -35.46      1.86
  114.6800      2.52      1.86    -34.82      1.86
  114.7000      1.56      1.86    -35.78      1.86
  114.7200      2.28      1.86    -35.06      1.86
  114.7400      1.60      1.86    -35.74      1.86
  114.7600      2.04      1.86    -35.30      1.86
  114.7800      2.20      1.86    -35.14      1.86
  114.8000      2.12      1.86    -35.22      1.86
  114.8200      1.52      1.86    -35.82      1.86
  114.8400      2.24      1.86    -35.10      1.86
  114.8600      1.60      1.86    -35.74      1.86
  114.8800      1.96      1.86    -35.38      1.86
  114.9000      1.80      1.86    -35.54      1.86
  114.9200      1.56      1.86    -35.78      1.86
  114.9400      2.32      1.86    -35.02      1.86
  114.9600      2.20      1.86    -35.14      1.86
  114.9800      2.60      1.86    -34.74      1.86
  115.0000      1.88      1.86    -35.46      1.86
  115.0200      2.40      1.86    -34.94      1.86
  115.0400      2.16      1.86    -35.18      1.86
  115.0600      2.24      1.86    -35.10      1.86
  115.0800      2.04      1.86    -35.30      1.86
  115.1000      2.04      1.86    -35.30      1.86
  115.1200      2.44      1.86    -34.90      1.86
  115.1400      2.12      1.86    -35.22      1.86
  115.1600      2.04      1.86    -35.30      1.86
  115.1800      1.72      1.86    -35.62      1.86
  115.2000      2.00      1.86    -35.34      1.86
  115.2200      1.76      1.86    -35.58      1.86
  115.2400      2.04      1.86    -35.30      1.86
  115.2600      2.48      1.86    -34.86      1.86
  115.2800      2.48      1.86    -34.86      1.86
  115.3000      1.88      1.86    -35.46      1.86
  115.3200      1.72      1.86    -35.62      1.86
  115.3400      1.52      1.86    -35.82      1.86
  115.3600      1.96      1.86    -35.38      1.86
  115.3800      1.84      1.86    -35.50      1.86
  115.4000      2.28      1.86    -35.06      1.86
  115.4200      2.48      1.86    -34.86      1.86
  115.4400      2.44      1.86    -34.90      1.86
  115.4600      1.60      1.86    -35.74      1.86
  115.4800      2.00      1.86    -35.34      1.86
  115.5000      2.28      1.86    -35.06      1.86
  115.5200      2.12      1.86    -35.22      1.86
  115.5400      2.40      1.86    -34.94      1.86
  115.5600      1.72      1.86    -35.62      1.86
  115.5800      2.16      1.86    -35.18      1.86
  115.6000      2.48      1.86    -34.86      1.86
  115.6200      1.92      1.86    -35.42      1.86
  115.6400      2.16      1.86    -35.18      1.86
  115.6600      1.92      1.86    -35.42      1.86
  115.6800      2.20      1.86    -35.14      1.86
  115.7000      2.24      1.86    -35.10      1.86
  115.7200      2.28      1.86    -35.06      1.86
  115.7400      2.04      1.86    -35.30      1.86
  115.7600      2.04      1.86    -35.30      1.86
  115.7800      1.76      1.86    -35.58      1.86
  115.8000      1.92      1.86    -35.42      1.86
  115.8200      2.44      1.86    -34.90      1.86
  115.8400      1.96      1.86    -35.38      1.86
  115.8600      2.12      1.86    -35.22      1.86
  115.8800      2.16      1.86    -35.18      1.86
  115.9000      2.00      1.86    -35.34      1.86
  115.9200      2.04      1.86    -35.30      1.86
  115.9400      1.32      1.86    -36.02      1.86
  115.9600      2.32      1.86    -35.02      1.86
  115.9800      2.32      1.86    -35.02      1.86
  116.0000      1.88      1.86    -35.46      1.86
  116.0200      2.20      1.86    -35.14      1.86
  116.0400      1.60      1.86    -35.74      1.86
  116.0600      2.08      1.86    -35.26      1.86
  116.0800      1.96      1.86    -35.38      1.86
  116.1000      1.84      1.86    -35.50      1.86
  116.1200      1.72      1.86    -35.62      1.86
  116.1400      1.92      1.86    -35.42      1.86
  116.1600      2.08      1.86    -35.26      1.86
  116.1800      1.88      1.86    -35.46      1.86
  116.2000      2.28      1.86    -35.06      1.86
  116.2200      1.92      1.86    -35.42      1.86
  116.2400      1.96      1.86    -35.38      1.86
  116.2600      2.48      1.86    -34.86      1.86
  116.2800      2.32      1.86    -35.02      1.86
  116.3000      2.48      1.86    -34.86      1.86
  116.3200      2.04      1.86    -35.30      1.86
  116.3400      2.24      1.86    -35.10      1.86
  116.3600      2.60      1.86    -34.74      1.86
  116.3800      2.28      1.86    -35.06      1.86
  116.4000      2.16      1.86    -35.18      1.86
  116.4200      1.60      1.86    -35.74      1.86
